# This data was collected and compiled at the NASA/Ames Research Center, Moffett Field, CA.  Any use of this data should recognize the parent publication:

# D.M. Hudgins, S.A. Sandford, L.J. Allamandola, and A.G.G.M. Tielens, "Mid- and Far-Infrared Spectroscopy of Ices: Optical Constants and Integrated Absorbances", The Astrophysical Journal Supplement Series, 86, no. 2, p. 713-870, 1993

# H2O - 10 K
# http://www.astrochem.org/data/H2O.php

Freq.	%T,10K	Freq. 	n, 10K	k, 10K
#(cm-1)			(cm-1)
50.153	100.03	50.153	1.7329	0.0000
51.117	100.05	52.082	1.7322	0.019900
52.082	99.929	54.011	1.7355	0.0000
53.046	100.05	55.940	1.7439	0.017200
54.011	100.02	57.869	1.7426	0.019200
54.975	99.992	59.798	1.7331	0.036300
55.940	99.933	61.727	1.7325	0.0000
56.904	99.898	63.656	1.7486	0.0000
57.869	99.923	65.585	1.7683	0.0000
58.833	99.791	67.514	1.7844	0.023800
59.798	99.853	69.442	1.7788	0.058500
60.762	99.745	71.371	1.7654	0.059500
61.727	99.999	73.300	1.7653	0.047700
62.691	99.928	75.229	1.7651	0.067600
63.656	100.00	77.158	1.7499	0.075400
64.620	99.845	79.087	1.7630	0.020500
65.585	100.02	81.016	1.7712	0.087500
66.549	99.847	82.945	1.7539	0.070900
67.514	99.885	84.874	1.7558	0.054000
68.478	99.717	86.803	1.7704	0.043700
69.442	99.718	88.732	1.7859	0.059700
70.406	99.659	90.661	1.7773	0.097700
71.371	99.708	92.590	1.7732	0.060800
72.335	99.757	94.519	1.7890	0.068000
73.300	99.758	96.448	1.7893	0.093600
74.264	99.819	98.377	1.7951	0.069600
75.229	99.651	100.31	1.8050	0.099000
76.193	99.749	102.24	1.8095	0.094800
77.158	99.605	104.16	1.8263	0.10490
78.122	99.775	106.09	1.8051	0.18930
79.087	99.884	108.02	1.7788	0.12860
80.051	99.849	109.95	1.7909	0.12180
81.016	99.513	111.88	1.8007	0.12980
81.980	99.598	113.81	1.8070	0.13760
82.945	99.599	115.74	1.8099	0.14990
83.909	99.660	117.67	1.8160	0.14960
84.874	99.685	119.59	1.8197	0.17150
85.838	99.590	121.52	1.8215	0.17710
86.803	99.735	123.45	1.8213	0.19840
87.767	99.568	125.38	1.8189	0.20520
88.732	99.629	127.31	1.8174	0.22160
89.696	99.317	129.24	1.8121	0.23670
90.661	99.390	131.17	1.8050	0.24910
91.625	99.379	133.10	1.7939	0.26460
92.590	99.609	135.03	1.7844	0.26340
93.554	99.465	136.96	1.7767	0.27540
94.519	99.550	138.88	1.7680	0.27290
95.483	99.322	140.81	1.7637	0.28010
96.448	99.372	142.74	1.7569	0.28500
97.412	99.481	144.67	1.7530	0.28420
98.377	99.518	146.60	1.7483	0.29510
99.341	99.555	148.53	1.7453	0.29160
100.31	99.303	150.46	1.7411	0.30840
101.27	99.413	152.39	1.7352	0.30660
102.24	99.317	154.32	1.7317	0.31810
103.20	99.475	156.24	1.7220	0.32560
104.16	99.223	158.17	1.7179	0.32340
105.13	99.127	160.10	1.7120	0.33860
106.09	98.610	162.03	1.7026	0.34110
107.06	99.021	163.96	1.6931	0.34850
108.02	99.046	165.89	1.6843	0.34610
108.99	99.107	167.82	1.6777	0.34920
109.95	99.072	169.75	1.6723	0.34740
110.91	99.133	171.68	1.6692	0.34970
111.88	98.989	173.61	1.6648	0.35700
112.84	98.858	175.53	1.6596	0.35520
113.81	98.907	177.46	1.6539	0.36830
114.77	98.715	179.39	1.6511	0.35680
115.74	98.789	181.32	1.6505	0.37540
116.70	98.621	183.25	1.6425	0.38320
117.67	98.766	185.18	1.6346	0.38970
118.63	98.502	187.11	1.6250	0.39900
119.59	98.564	189.04	1.6153	0.40160
120.56	98.348	190.97	1.6044	0.41110
121.52	98.493	192.90	1.5937	0.41070
122.49	98.313	194.82	1.5830	0.41370
123.45	98.290	196.75	1.5732	0.41860
124.42	98.171	198.68	1.5639	0.41680
125.38	98.208	200.61	1.5539	0.42510
126.35	98.209	202.54	1.5427	0.42400
127.31	98.041	204.47	1.5317	0.42930
128.28	98.006	206.40	1.5212	0.42700
129.24	97.887	208.33	1.5095	0.43480
130.20	97.996	210.26	1.4970	0.43320
131.17	97.756	212.18	1.4830	0.43530
132.13	97.805	214.11	1.4693	0.43740
133.10	97.601	216.04	1.4544	0.43450
134.06	97.771	217.97	1.4392	0.43390
135.03	97.591	219.90	1.4239	0.42800
135.99	97.652	221.83	1.4086	0.42430
136.96	97.461	223.76	1.3928	0.41530
137.92	97.510	225.69	1.3812	0.40100
138.88	97.462	227.62	1.3716	0.39370
139.85	97.415	229.55	1.3620	0.38320
140.81	97.368	231.48	1.3532	0.37580
141.78	97.249	233.40	1.3443	0.36100
142.74	97.298	235.33	1.3399	0.35370
143.71	97.178	237.26	1.3318	0.34850
144.67	97.276	239.19	1.3245	0.33470
145.64	97.060	241.12	1.3192	0.32690
146.60	97.145	243.05	1.3134	0.31720
147.57	96.965	244.98	1.3072	0.30870
148.53	97.147	246.91	1.3026	0.29480
149.49	96.979	248.84	1.3004	0.28560
150.46	96.956	250.76	1.2955	0.27720
151.42	96.837	252.69	1.2935	0.26420
152.39	96.946	254.62	1.2918	0.25640
153.35	96.887	256.55	1.2913	0.24340
154.32	96.803	258.48	1.2912	0.23850
155.28	96.744	260.41	1.2895	0.23000
156.24	96.709	262.34	1.2883	0.22160
157.21	96.806	264.27	1.2875	0.21320
158.17	96.699	266.20	1.2878	0.20480
159.14	96.736	268.12	1.2862	0.19870
160.10	96.520	270.05	1.2869	0.18770
161.07	96.629	271.98	1.2867	0.18440
162.03	96.474	273.91	1.2857	0.17380
163.00	96.559	275.84	1.2863	0.16600
163.96	96.379	277.77	1.2872	0.15730
164.93	96.453	279.70	1.2890	0.14870
165.89	96.381	281.63	1.2909	0.14200
166.85	96.418	283.56	1.2936	0.13360
167.82	96.323	285.48	1.2953	0.12890
168.78	96.264	287.41	1.2977	0.12080
169.75	96.313	289.34	1.3004	0.11540
170.71	96.266	291.27	1.3030	0.10920
171.68	96.255	293.20	1.3056	0.10400
172.64	96.063	295.13	1.3073	0.099700
173.61	96.148	297.06	1.3095	0.092200
174.57	96.029	298.99	1.3118	0.088100
175.53	96.138	300.92	1.3136	0.081600
176.50	95.934	302.85	1.3166	0.074400
177.46	95.971	304.77	1.3197	0.068900
178.43	95.876	306.70	1.3234	0.062700
179.39	96.058	308.63	1.3267	0.058200
180.36	95.938	310.56	1.3312	0.049800
181.32	95.819	312.49	1.3358	0.047800
182.29	95.747	314.42	1.3403	0.040500
183.25	95.712	316.35	1.3451	0.038500
184.22	95.713	318.28	1.3490	0.033600
185.18	95.618	320.21	1.3535	0.029600
186.14	95.643	322.14	1.3580	0.025600
187.11	95.499	324.06	1.3629	0.021000
188.07	95.560	325.99	1.3676	0.018600
189.04	95.453	327.92	1.3726	0.013500
190.00	95.526	329.85	1.3779	0.011200
190.97	95.334	331.78	1.3832	0.0069000
191.93	95.371	333.71	1.3894	0.0033000
192.90	95.324	335.64	1.3955	0.0012000
193.86	95.385	337.57	1.4023	0.0000
194.82	95.278	339.50	1.4092	0.0000
195.79	95.231	341.42	1.4160	0.0000
196.75	95.208	343.35	1.4228	0.0000
197.72	95.221	345.28	1.4291	0.0000
198.68	95.210	347.21	1.4346	0.0000
199.65	95.078	349.14	1.4395	0.0000
200.61	95.103	351.07	1.4443	0.0010999
201.58	95.032	353.00	1.4484	0.0025001
202.54	95.105	354.93	1.4526	0.0027000
203.50	94.973	356.86	1.4567	0.0046999
204.47	95.035	358.79	1.4604	0.0053999
205.43	94.951	360.71	1.4643	0.0062000
206.40	95.049	362.64	1.4680	0.0075001
207.36	94.953	364.57	1.4721	0.0075999
208.33	94.954	366.50	1.4761	0.010100
209.29	94.919	368.43	1.4797	0.010700
210.26	94.968	370.36	1.4837	0.012500
211.22	94.969	372.29	1.4873	0.014900
212.18	94.946	374.22	1.4906	0.016600
213.15	94.959	376.15	1.4937	0.019500
214.11	94.924	378.08	1.4965	0.021200
215.08	94.997	380.00	1.4990	0.024000
216.04	94.962	381.93	1.5013	0.025700
217.01	95.035	383.86	1.5037	0.027900
217.97	94.976	385.79	1.5054	0.030600
218.94	95.073	387.72	1.5070	0.031600
219.90	95.050	389.65	1.5091	0.032700
220.87	95.148	391.58	1.5116	0.033700
221.83	95.100	393.51	1.5141	0.035700
222.79	95.162	395.44	1.5166	0.037200
223.76	95.211	397.36	1.5189	0.039300
224.72	95.296	399.29	1.5212	0.041800
225.69	95.369	401.22	1.5232	0.043800
226.65	95.358	403.15	1.5250	0.046800
227.62	95.443	405.08	1.5267	0.048200
228.58	95.469	407.01	1.5281	0.051700
229.55	95.554	408.94	1.5295	0.052600
230.51	95.531	410.87	1.5308	0.056000
231.48	95.628	412.80	1.5318	0.057400
232.44	95.653	414.72	1.5328	0.059300
233.40	95.787	416.65	1.5340	0.061100
234.37	95.776	418.58	1.5353	0.062400
235.33	95.849	420.51	1.5365	0.064700
236.30	95.850	422.44	1.5379	0.065500
237.26	95.899	424.37	1.5395	0.067800
238.23	95.972	426.30	1.5410	0.069500
239.19	96.046	428.23	1.5423	0.072200
240.15	96.095	430.16	1.5433	0.073900
241.12	96.120	432.09	1.5448	0.075600
242.08	96.205	434.02	1.5461	0.078700
243.05	96.218	435.94	1.5468	0.080400
244.01	96.327	437.87	1.5477	0.083500
244.98	96.304	439.80	1.5483	0.085100
245.94	96.414	441.73	1.5491	0.087200
246.91	96.451	443.66	1.5498	0.089300
247.87	96.488	445.59	1.5504	0.091400
248.84	96.537	447.52	1.5510	0.093500
249.80	96.574	449.45	1.5517	0.095000
250.76	96.623	451.38	1.5528	0.097000
251.73	96.709	453.30	1.5533	0.099100
252.69	96.758	455.23	1.5540	0.10200
253.66	96.759	457.16	1.5545	0.10350
254.62	96.832	459.09	1.5553	0.10540
255.59	96.857	461.02	1.5560	0.10830
256.55	96.967	462.95	1.5564	0.11030
257.52	96.943	464.88	1.5569	0.11310
258.48	97.005	466.81	1.5570	0.11550
259.44	96.994	468.74	1.5573	0.11740
260.41	97.091	470.67	1.5576	0.12060
261.37	97.116	472.59	1.5570	0.12210
262.34	97.177	474.52	1.5572	0.12490
263.30	97.190	476.45	1.5572	0.12630
264.27	97.264	478.38	1.5573	0.12910
265.23	97.313	480.31	1.5572	0.13090
266.20	97.350	482.24	1.5570	0.13370
267.16	97.399	484.17	1.5568	0.13550
268.12	97.412	486.10	1.5567	0.13780
269.09	97.521	488.03	1.5567	0.14050
270.05	97.534	489.95	1.5556	0.14280
271.02	97.596	491.88	1.5553	0.14500
271.98	97.560	493.81	1.5546	0.14730
272.95	97.658	495.74	1.5537	0.14960
273.91	97.683	497.67	1.5526	0.15190
274.88	97.768	499.60	1.5512	0.15380
275.84	97.769	501.53	1.5507	0.15380
276.81	97.806	503.46	1.5497	0.15790
277.77	97.868	505.39	1.5482	0.15850
278.73	97.941	507.31	1.5464	0.15920
279.70	97.966	509.24	1.5460	0.15960
280.66	97.967	511.17	1.5462	0.16000
281.63	98.040	513.10	1.5456	0.16370
282.59	98.053	515.03	1.5442	0.16420
283.56	98.138	516.96	1.5428	0.16630
284.52	98.115	518.89	1.5419	0.16500
285.48	98.189	520.82	1.5411	0.16720
286.45	98.190	522.75	1.5417	0.16370
287.41	98.287	524.68	1.5428	0.16940
288.38	98.288	526.60	1.5411	0.16950
289.34	98.349	528.53	1.5407	0.17180
290.31	98.374	530.46	1.5399	0.17180
291.27	98.423	532.39	1.5391	0.17400
292.24	98.460	534.32	1.5380	0.17400
293.20	98.485	536.25	1.5384	0.17250
294.17	98.535	538.18	1.5386	0.17600
295.13	98.536	540.11	1.5379	0.17600
296.09	98.621	542.04	1.5387	0.17620
297.06	98.634	543.96	1.5378	0.17960
298.02	98.719	545.89	1.5370	0.18000
298.99	98.684	547.82	1.5365	0.18010
299.95	98.757	549.75	1.5365	0.18040
300.92	98.770	551.68	1.5372	0.18040
301.88	98.868	553.61	1.5381	0.18230
302.85	98.869	555.54	1.5378	0.18550
303.81	98.918	557.47	1.5368	0.18590
304.77	98.943	559.40	1.5370	0.18570
305.74	99.004	561.33	1.5372	0.18760
306.70	99.029	563.26	1.5379	0.18780
307.67	99.018	565.18	1.5381	0.18970
308.63	99.091	567.11	1.5380	0.19320
309.60	99.116	569.04	1.5369	0.19340
310.56	99.214	570.97	1.5373	0.19320
311.53	99.167	572.90	1.5379	0.19520
312.49	99.240	574.83	1.5381	0.19700
313.46	99.253	576.76	1.5377	0.19890
314.42	99.350	578.69	1.5379	0.19890
315.38	99.339	580.62	1.5392	0.20080
316.35	99.376	582.54	1.5381	0.20440
317.31	99.377	584.47	1.5380	0.20460
318.28	99.451	586.40	1.5379	0.20640
319.24	99.500	588.33	1.5383	0.20650
320.21	99.513	590.26	1.5391	0.20860
321.17	99.562	592.19	1.5398	0.21050
322.14	99.575	594.12	1.5400	0.21400
323.10	99.660	596.05	1.5395	0.21620
324.06	99.649	597.98	1.5395	0.21840
325.03	99.722	599.90	1.5379	0.22060
325.99	99.687	601.83	1.5382	0.22090
326.96	99.785	603.76	1.5387	0.22290
327.92	99.773	605.69	1.5383	0.22640
328.89	99.847	607.62	1.5379	0.22700
329.85	99.812	609.55	1.5384	0.22880
330.82	99.861	611.48	1.5382	0.23270
331.78	99.886	613.41	1.5372	0.23450
332.74	99.923	615.34	1.5372	0.23510
333.71	99.948	617.27	1.5379	0.23860
334.67	99.925	619.19	1.5365	0.24060
335.64	99.986	621.12	1.5370	0.24240
336.60	99.987	623.05	1.5367	0.24600
337.57	100.05	624.98	1.5360	0.24800
338.53	99.989	626.91	1.5356	0.25000
339.50	100.06	628.84	1.5358	0.25200
340.46	100.03	630.77	1.5358	0.25550
341.42	100.09	632.70	1.5350	0.25920
342.39	100.04	634.63	1.5345	0.26160
343.35	100.08	636.55	1.5330	0.26410
344.32	100.04	638.48	1.5328	0.26780
345.28	100.07	640.41	1.5316	0.27050
346.25	100.05	642.34	1.5309	0.27300
347.21	100.03	644.27	1.5298	0.27700
348.18	100.04	646.20	1.5285	0.27950
349.14	100.02	648.13	1.5269	0.28390
350.11	100.04	650.06	1.5247	0.28640
351.07	99.987	651.99	1.5227	0.28880
352.03	100.03	653.92	1.5218	0.29070
353.00	99.959	655.84	1.5189	0.29440
353.96	100.01	657.77	1.5173	0.29620
354.93	99.955	659.70	1.5156	0.29800
355.89	99.996	661.63	1.5137	0.30070
356.86	99.915	663.56	1.5120	0.30160
357.82	99.943	665.49	1.5113	0.30270
358.79	99.899	667.42	1.5109	0.30540
359.75	99.915	669.35	1.5089	0.31040
360.71	99.883	671.28	1.5074	0.30910
361.68	99.863	673.21	1.5079	0.31260
362.64	99.855	675.13	1.5058	0.31490
363.61	99.835	677.06	1.5043	0.31680
364.57	99.851	678.99	1.5489	0.30970
365.54	99.783	680.44	1.4779	0.34140
366.50	99.799	682.37	1.5053	0.33720
367.47	99.743	684.30	1.4997	0.34030
368.43	99.783	686.23	1.4968	0.34270
369.40	99.715	688.15	1.4929	0.34540
370.36	99.743	690.08	1.4902	0.35090
371.32	99.675	692.01	1.4860	0.35370
372.29	99.691	693.94	1.4822	0.35640
373.25	99.647	695.87	1.4786	0.35900
374.22	99.651	697.80	1.4750	0.36160
375.18	99.607	699.73	1.4715	0.36430
376.15	99.587	701.66	1.4679	0.36690
377.11	99.579	703.59	1.4643	0.36960
378.08	99.547	705.52	1.4615	0.37210
379.04	99.551	707.44	1.4563	0.37510
380.00	99.482	709.37	1.4531	0.37760
380.97	99.511	711.30	1.4489	0.38050
381.93	99.442	713.23	1.4439	0.38350
382.90	99.470	715.16	1.4398	0.38320
383.86	99.390	717.09	1.4364	0.38580
384.83	99.406	719.02	1.4324	0.38850
385.79	99.326	720.95	1.4274	0.39160
386.76	99.330	722.88	1.4239	0.39110
387.72	99.298	724.80	1.4188	0.39420
388.68	99.302	726.73	1.4145	0.39710
389.65	99.270	728.66	1.4099	0.39690
390.61	99.250	730.59	1.4053	0.39980
391.58	99.242	732.52	1.4009	0.39960
392.54	99.186	734.45	1.3964	0.40260
393.51	99.190	736.38	1.3919	0.40230
394.47	99.133	738.31	1.3873	0.40530
395.44	99.150	740.24	1.3826	0.40510
396.40	99.081	742.17	1.3788	0.40790
397.36	99.097	744.09	1.3724	0.40830
398.33	99.017	746.02	1.3680	0.41120
399.29	99.033	747.95	1.3619	0.41140
400.26	98.977	749.88	1.3564	0.41150
401.22	98.981	751.81	1.3512	0.41150
402.19	98.913	753.74	1.3462	0.41150
403.15	98.905	755.67	1.3414	0.41140
404.12	98.873	757.60	1.3371	0.41110
405.08	98.865	759.53	1.3312	0.41450
406.05	98.833	761.46	1.3262	0.41120
407.01	98.776	763.38	1.3203	0.41140
407.97	98.781	765.31	1.3165	0.41110
408.94	98.748	767.24	1.3122	0.41080
409.90	98.752	769.17	1.3063	0.41420
410.87	98.660	771.10	1.3001	0.41130
411.83	98.676	773.03	1.2950	0.41130
412.80	98.620	774.96	1.2889	0.41160
413.76	98.648	776.89	1.2833	0.40850
414.72	98.568	778.82	1.2790	0.40830
415.69	98.560	780.74	1.2725	0.40540
416.65	98.516	782.67	1.2690	0.40500
417.62	98.520	784.60	1.2633	0.40510
418.58	98.476	786.53	1.2580	0.40200
419.55	98.432	788.46	1.2528	0.40200
420.51	98.412	790.39	1.2477	0.39880
421.48	98.379	792.32	1.2425	0.39880
422.44	98.383	794.25	1.2367	0.39570
423.41	98.315	796.18	1.2323	0.39230
424.37	98.319	798.11	1.2284	0.39200
425.33	98.251	800.03	1.2215	0.38920
426.30	98.267	801.96	1.2180	0.38560
427.26	98.187	803.89	1.2133	0.38550
428.23	98.191	805.82	1.2077	0.38240
429.19	98.123	807.75	1.2028	0.37910
430.16	98.139	809.68	1.1984	0.37570
431.12	98.095	811.61	1.1947	0.37220
432.09	98.087	813.54	1.1903	0.37200
433.05	98.030	815.47	1.1858	0.36860
434.02	97.998	817.39	1.1797	0.36560
434.98	97.978	819.32	1.1758	0.36210
435.94	97.946	821.25	1.1713	0.35870
436.91	97.926	823.18	1.1670	0.35530
437.87	97.858	825.11	1.1627	0.35190
438.84	97.850	827.04	1.1583	0.34850
439.80	97.806	828.97	1.1535	0.34520
440.77	97.810	830.90	1.1501	0.33840
441.73	97.742	832.83	1.1462	0.33810
442.70	97.734	834.76	1.1426	0.33130
443.66	97.677	836.68	1.1383	0.32790
444.62	97.669	838.61	1.1356	0.32420
445.59	97.613	840.54	1.1319	0.32060
446.55	97.593	842.47	1.1275	0.31730
447.52	97.549	844.40	1.1239	0.31060
448.48	97.529	846.33	1.1212	0.30680
449.45	97.497	848.26	1.1174	0.30330
450.41	97.453	850.19	1.1143	0.29660
451.38	97.433	852.12	1.1126	0.29270
452.34	97.376	854.04	1.1081	0.28940
453.30	97.368	855.97	1.1057	0.28250
454.27	97.300	857.90	1.1031	0.27880
455.23	97.280	859.83	1.1009	0.27200
456.20	97.224	861.76	1.0992	0.26820
457.16	97.228	863.69	1.0964	0.26460
458.13	97.172	865.62	1.0940	0.25790
459.09	97.164	867.55	1.0919	0.25420
460.06	97.108	869.48	1.0900	0.24740
461.02	97.076	871.41	1.0887	0.24360
461.98	97.031	873.33	1.0862	0.23700
462.95	97.011	875.26	1.0852	0.23320
463.91	96.967	877.19	1.0838	0.22650
464.88	96.923	879.12	1.0826	0.22270
465.84	96.891	881.05	1.0815	0.21610
466.81	96.847	882.98	1.0805	0.21230
467.77	96.839	884.91	1.0797	0.20570
468.74	96.783	886.84	1.0789	0.20200
469.70	96.751	888.77	1.0782	0.19530
470.67	96.682	890.70	1.0781	0.19170
471.63	96.686	892.62	1.0769	0.18510
472.59	96.630	894.55	1.0769	0.18150
473.56	96.598	896.48	1.0766	0.17500
474.52	96.542	898.41	1.0763	0.17140
475.49	96.534	900.34	1.0757	0.16500
476.45	96.490	902.27	1.0764	0.15850
477.42	96.458	904.20	1.0770	0.15490
478.38	96.402	906.13	1.0775	0.14850
479.35	96.369	908.06	1.0785	0.14500
480.31	96.337	909.98	1.0786	0.13870
481.27	96.281	911.91	1.0797	0.13530
482.24	96.249	913.84	1.0806	0.12910
483.20	96.193	915.77	1.0816	0.12560
484.17	96.185	917.70	1.0826	0.11950
485.13	96.129	919.63	1.0838	0.11620
486.10	96.109	921.56	1.0851	0.11010
487.06	96.040	923.49	1.0865	0.10680
488.03	96.020	925.42	1.0881	0.10090
488.99	95.964	927.35	1.0900	0.097600
489.95	95.944	929.27	1.0915	0.091800
490.92	95.888	931.20	1.0941	0.088600
491.88	95.868	933.13	1.0954	0.085500
492.85	95.824	935.06	1.0971	0.079800
493.81	95.792	936.99	1.0992	0.076700
494.78	95.760	938.92	1.1015	0.071100
495.74	95.715	940.85	1.1044	0.068100
496.71	95.683	942.78	1.1063	0.065100
497.67	95.639	944.71	1.1089	0.059700
498.64	95.619	946.63	1.1119	0.056800
499.60	95.575	948.56	1.1147	0.053900
500.56	95.535	950.49	1.1172	0.051100
501.53	95.559	952.42	1.1192	0.048300
502.49	95.551	954.35	1.1221	0.043000
503.46	95.432	956.28	1.1258	0.040300
504.42	95.474	958.21	1.1295	0.037700
505.39	95.404	960.14	1.1324	0.037400
506.35	95.391	962.07	1.1344	0.034700
507.31	95.371	964.00	1.1369	0.032100
508.28	95.408	965.92	1.1394	0.029500
509.24	95.344	967.85	1.1423	0.026900
510.21	95.330	969.78	1.1454	0.024400
511.17	95.317	971.71	1.1489	0.021800
512.14	95.253	973.64	1.1518	0.021700
513.10	95.196	975.57	1.1542	0.019200
514.07	95.126	977.50	1.1575	0.016700
515.03	95.169	979.43	1.1605	0.016600
516.00	95.149	981.36	1.1633	0.014200
516.96	95.097	983.28	1.1660	0.014000
517.92	95.128	985.21	1.1687	0.011600
518.89	95.120	987.14	1.1714	0.011500
519.85	94.901	989.07	1.1742	0.0091000
520.82	95.043	991.00	1.1773	0.0089999
521.78	95.079	992.93	1.1794	0.0089000
522.75	95.122	994.86	1.1820	0.0065000
523.71	94.952	996.79	1.1850	0.0064000
524.68	94.939	998.72	1.1876	0.0063000
525.64	94.937	1000.6	1.1894	0.0062000
526.60	94.923	1002.6	1.1914	0.0060000
527.57	94.910	1004.5	1.1934	0.0037000
528.53	94.840	1006.4	1.1961	0.0036000
529.50	94.789	1008.4	1.1986	0.0035000
530.46	94.825	1010.3	1.2006	0.0034000
531.43	94.818	1012.2	1.2025	0.0032001
532.39	94.748	1014.1	1.2042	0.0031000
533.36	94.790	1016.1	1.2059	0.0030000
534.32	94.733	1018.0	1.2071	0.0028000
535.29	94.725	1019.9	1.2088	0.00059998
536.25	94.756	1021.9	1.2113	0.00049996
537.21	94.648	1023.8	1.2132	0.00030005
538.18	94.634	1025.7	1.2149	0.00020003
539.14	94.583	1027.7	1.2163	0.00010002
540.11	94.619	1029.6	1.2182	0.0000
541.07	94.650	1031.5	1.2207	0.0000
542.04	94.592	1033.4	1.2228	0.0000
543.00	94.534	1035.4	1.2247	0.0000
543.96	94.477	1037.3	1.2264	0.0000
544.93	94.507	1039.2	1.2281	0.0000
545.89	94.450	1041.2	1.2297	0.0000
546.86	94.436	1043.1	1.2313	0.0000
547.82	94.429	1045.0	1.2328	0.0000
548.79	94.359	1046.9	1.2342	0.0000
549.75	94.401	1048.9	1.2357	0.0000
550.72	94.338	1050.8	1.2370	0.0000
551.68	94.380	1052.7	1.2384	0.0000
552.65	94.267	1054.7	1.2397	0.0000
553.61	94.303	1056.6	1.2410	0.0000
554.57	94.245	1058.5	1.2422	0.0000
555.54	94.188	1060.4	1.2434	0.0000
556.50	94.174	1062.4	1.2446	0.0000
557.47	94.161	1064.3	1.2457	0.0000
558.43	94.153	1066.2	1.2466	0.0000
559.40	94.146	1068.2	1.2483	0.0000
560.36	94.132	1070.1	1.2501	0.0000
561.33	94.068	1072.0	1.2508	0.0000
562.29	94.061	1073.9	1.2518	0.0000
563.26	94.041	1075.9	1.2529	0.0000
564.22	93.984	1077.8	1.2539	0.0000
565.18	93.964	1079.7	1.2549	0.0000
566.15	93.900	1081.7	1.2559	0.0000
567.11	93.837	1083.6	1.2569	0.0000
568.08	93.885	1085.5	1.2579	0.0000
569.04	93.816	1087.4	1.2589	0.0000
570.01	93.858	1089.4	1.2599	0.0000
570.97	93.800	1091.3	1.2609	0.0000
571.94	93.787	1093.2	1.2619	0.0000
572.90	93.717	1095.2	1.2629	0.0000
573.86	93.648	1097.1	1.2639	0.0000
574.83	93.640	1099.0	1.2651	0.0000
575.79	93.626	1101.0	1.2655	0.0017999
576.76	93.563	1102.9	1.2658	0.0000
577.72	93.549	1104.8	1.2670	0.0000
578.69	93.542	1106.7	1.2680	0.0000
579.65	93.472	1108.7	1.2690	0.0000
580.62	93.458	1110.6	1.2700	0.00010002
581.58	93.389	1112.5	1.2709	0.00010002
582.54	93.331	1114.5	1.2720	0.00010002
583.51	93.368	1116.4	1.2730	0.00020003
584.47	93.304	1118.3	1.2744	0.00020003
585.44	93.234	1120.2	1.2751	0.0021000
586.40	93.227	1122.2	1.2754	0.0021000
587.37	93.213	1124.1	1.2758	0.0021000
588.33	93.200	1126.0	1.2763	0.0021000
589.30	93.124	1128.0	1.2770	0.0021000
590.26	93.110	1129.9	1.2776	0.0021000
591.22	93.041	1131.8	1.2783	0.0021000
592.19	93.027	1133.7	1.2789	0.0021000
593.15	92.964	1135.7	1.2797	0.0022000
594.12	92.894	1137.6	1.2803	0.0022000
595.08	92.874	1139.5	1.2809	0.0022000
596.05	92.805	1141.5	1.2817	0.0022000
597.01	92.735	1143.4	1.2823	0.0022000
597.98	92.716	1145.3	1.2830	0.0022000
598.94	92.702	1147.2	1.2837	0.0023000
599.90	92.632	1149.2	1.2845	0.0023000
600.87	92.619	1151.1	1.2852	0.0023000
601.83	92.599	1153.0	1.2859	0.0023000
602.80	92.535	1155.0	1.2868	0.0023000
603.76	92.510	1156.9	1.2876	0.0024000
604.73	92.446	1158.8	1.2888	0.0024000
605.69	92.377	1160.7	1.2893	0.0041000
606.66	92.357	1162.7	1.2895	0.0041000
607.62	92.337	1164.6	1.2898	0.0041000
608.59	92.274	1166.5	1.2901	0.0041000
609.55	92.254	1168.5	1.2908	0.0041000
610.51	92.185	1170.4	1.2912	0.0042000
611.48	92.109	1172.3	1.2917	0.0042000
612.44	92.039	1174.3	1.2924	0.0042000
613.41	92.032	1176.2	1.2929	0.0042000
614.37	91.968	1178.1	1.2935	0.0042000
615.34	91.992	1180.0	1.2940	0.0042000
616.30	91.867	1182.0	1.2949	0.0042000
617.27	91.853	1183.9	1.2955	0.0042000
618.23	91.790	1185.8	1.2963	0.0042000
619.19	91.770	1187.8	1.2968	0.0059000
620.16	91.706	1189.7	1.2972	0.0043000
621.12	91.687	1191.6	1.2980	0.0059000
622.09	91.617	1193.5	1.2980	0.0059000
623.05	91.548	1195.5	1.2985	0.0059000
624.02	91.484	1197.4	1.2988	0.0059000
624.98	91.464	1199.3	1.2991	0.0059000
625.95	91.389	1201.3	1.2999	0.0059000
626.91	91.375	1203.2	1.3003	0.0059000
627.87	91.305	1205.1	1.3008	0.0059000
628.84	91.286	1207.0	1.3013	0.0059000
629.80	91.166	1209.0	1.3022	0.0060000
630.77	91.147	1210.9	1.3031	0.0060000
631.73	91.077	1212.8	1.3034	0.0075999
632.70	91.007	1214.8	1.3036	0.0075999
633.66	90.982	1216.7	1.3037	0.0075999
634.63	90.906	1218.6	1.3040	0.0075999
635.59	90.886	1220.5	1.3042	0.0075999
636.55	90.811	1222.5	1.3049	0.0075999
637.52	90.741	1224.4	1.3052	0.0075999
638.48	90.666	1226.3	1.3055	0.0075999
639.45	90.640	1228.3	1.3064	0.0075999
640.41	90.558	1230.2	1.3070	0.0075999
641.38	90.539	1232.1	1.3071	0.0092000
642.34	90.457	1234.0	1.3071	0.0075999
643.31	90.381	1236.0	1.3086	0.0075999
644.27	90.306	1237.9	1.3089	0.0092000
645.24	90.280	1239.8	1.3087	0.0092000
646.20	90.204	1241.8	1.3093	0.0092000
647.16	90.123	1243.7	1.3095	0.0092000
648.13	90.047	1245.6	1.3097	0.0092000
649.09	89.971	1247.6	1.3106	0.0092000
650.06	89.952	1249.5	1.3112	0.0092000
651.02	89.876	1251.4	1.3113	0.010700
651.99	89.857	1253.3	1.3114	0.0091000
652.95	89.837	1255.3	1.3124	0.010700
653.92	89.773	1257.2	1.3122	0.010700
654.88	89.710	1259.1	1.3122	0.010700
655.84	89.646	1261.1	1.3129	0.010700
656.81	89.633	1263.0	1.3130	0.010700
657.77	89.569	1264.9	1.3134	0.010700
658.74	89.505	1266.8	1.3137	0.010700
659.70	89.492	1268.8	1.3146	0.010700
660.67	89.440	1270.7	1.3152	0.010700
661.63	89.389	1272.6	1.3153	0.012200
662.60	89.393	1274.6	1.3156	0.012200
663.56	89.342	1276.5	1.3155	0.012200
664.53	89.284	1278.4	1.3158	0.012100
665.49	89.282	1280.3	1.3159	0.012100
666.45	89.225	1282.3	1.3167	0.012100
667.42	89.167	1284.2	1.3170	0.012100
668.38	88.848	1286.1	1.3175	0.012100
669.35	88.990	1288.1	1.3183	0.013600
670.31	89.033	1290.0	1.3179	0.013600
671.28	89.013	1291.9	1.3180	0.013600
672.24	88.943	1293.8	1.3180	0.013600
673.21	88.868	1295.8	1.3188	0.013600
674.17	88.848	1297.7	1.3190	0.013500
675.13	88.778	1299.6	1.3194	0.013500
676.10	88.759	1301.6	1.3202	0.015000
677.06	88.695	1303.5	1.3196	0.015000
678.03	88.632	1305.4	1.3197	0.015000
678.99	88.594	1307.3	1.3195	0.015000
679.96	88.518	1309.3	1.3203	0.015000
680.44	88.031	1311.2	1.3203	0.014900
681.40	87.936	1313.1	1.3203	0.014900
682.37	87.941	1315.1	1.3212	0.014900
683.33	87.946	1317.0	1.3214	0.014900
684.30	87.850	1318.9	1.3218	0.014900
685.26	87.755	1320.9	1.3226	0.016400
686.23	87.760	1322.8	1.3221	0.016300
687.19	87.665	1324.7	1.3222	0.016300
688.15	87.670	1326.6	1.3220	0.016300
689.12	87.575	1328.6	1.3229	0.016300
690.08	87.480	1330.5	1.3229	0.016300
691.05	87.485	1332.4	1.3229	0.016200
692.01	87.390	1334.4	1.3242	0.016200
692.98	87.395	1336.3	1.3241	0.017700
693.94	87.299	1338.2	1.3239	0.017600
694.91	87.304	1340.1	1.3236	0.017600
695.87	87.209	1342.1	1.3244	0.017600
696.84	87.114	1344.0	1.3243	0.017600
697.80	87.119	1345.9	1.3242	0.017600
698.76	87.124	1347.9	1.3252	0.017500
699.73	87.029	1349.8	1.3255	0.017500
700.69	87.034	1351.7	1.3257	0.019000
701.66	86.939	1353.6	1.3251	0.018900
702.62	86.944	1355.6	1.3258	0.018900
703.59	86.848	1357.5	1.3255	0.018900
704.55	86.853	1359.4	1.3253	0.018800
705.52	86.758	1361.4	1.3263	0.018800
706.48	86.663	1363.3	1.3262	0.018800
707.44	86.668	1365.2	1.3268	0.018800
708.41	86.673	1367.1	1.3263	0.020200
709.37	86.578	1369.1	1.3272	0.018700
710.34	86.583	1371.0	1.3273	0.020200
711.30	86.488	1372.9	1.3267	0.020100
712.27	86.493	1374.9	1.3275	0.020100
713.23	86.397	1376.8	1.3272	0.020100
714.20	86.402	1378.7	1.3274	0.020000
715.16	86.407	1380.6	1.3273	0.020000
716.12	86.312	1382.6	1.3283	0.020000
717.09	86.317	1384.5	1.3283	0.020000
718.05	86.222	1386.4	1.3285	0.020000
719.02	86.227	1388.4	1.3295	0.021400
719.98	86.232	1390.3	1.3288	0.021300
720.95	86.137	1392.2	1.3284	0.021300
721.91	86.142	1394.2	1.3294	0.021300
722.88	86.146	1396.1	1.3291	0.021200
723.84	86.151	1398.0	1.3294	0.021200
724.80	86.056	1399.9	1.3293	0.021200
725.77	86.061	1401.9	1.3307	0.021200
726.73	85.966	1403.8	1.3305	0.022500
727.70	85.971	1405.7	1.3298	0.022500
728.66	85.976	1407.7	1.3307	0.022500
729.63	85.881	1409.6	1.3303	0.022400
730.59	85.886	1411.5	1.3306	0.022400
731.56	85.891	1413.4	1.3304	0.022400
732.52	85.896	1415.4	1.3318	0.022400
733.48	85.800	1417.3	1.3316	0.023700
734.45	85.805	1419.2	1.3308	0.023700
735.41	85.810	1421.2	1.3317	0.023700
736.38	85.815	1423.1	1.3313	0.023600
737.34	85.720	1425.0	1.3315	0.023600
738.31	85.725	1426.9	1.3313	0.023600
739.27	85.630	1428.9	1.3327	0.023600
740.24	85.735	1430.8	1.3324	0.024900
741.20	85.740	1432.7	1.3316	0.024900
742.17	85.645	1434.7	1.3324	0.024800
743.13	85.649	1436.6	1.3320	0.024800
744.09	85.654	1438.5	1.3321	0.024800
745.06	85.659	1440.4	1.3317	0.024700
746.02	85.564	1442.4	1.3329	0.024700
746.99	85.569	1444.3	1.3326	0.024700
747.95	85.574	1446.2	1.3325	0.024600
748.92	85.579	1448.2	1.3340	0.024600
749.88	85.584	1450.1	1.3336	0.025900
750.85	85.589	1452.0	1.3334	0.025900
751.81	85.594	1453.9	1.3329	0.025900
752.78	85.498	1455.9	1.3339	0.025800
753.74	85.603	1457.8	1.3336	0.025800
754.70	85.608	1459.7	1.3333	0.025800
755.67	85.613	1461.7	1.3346	0.025700
756.63	85.618	1463.6	1.3347	0.025700
757.60	85.623	1465.5	1.3343	0.027000
758.56	85.628	1467.5	1.3351	0.027000
759.53	85.533	1469.4	1.3346	0.027000
760.49	85.638	1471.3	1.3348	0.026900
761.46	85.643	1473.2	1.3345	0.026900
762.42	85.647	1475.2	1.3360	0.026900
763.38	85.652	1477.1	1.3356	0.028200
764.35	85.657	1479.0	1.3348	0.028100
765.31	85.662	1481.0	1.3359	0.028100
766.28	85.667	1482.9	1.3354	0.028100
767.24	85.672	1484.8	1.3356	0.028000
768.21	85.677	1486.7	1.3353	0.028000
769.17	85.582	1488.7	1.3369	0.028000
770.13	85.687	1490.6	1.3365	0.029200
771.10	85.692	1492.5	1.3357	0.029200
772.06	85.696	1494.5	1.3368	0.029200
773.03	85.701	1496.4	1.3364	0.029100
773.99	85.706	1498.3	1.3367	0.029100
774.96	85.711	1500.2	1.3366	0.029100
775.92	85.816	1502.2	1.3379	0.030300
776.89	85.821	1504.1	1.3371	0.030300
777.85	85.826	1506.0	1.3366	0.030300
778.82	85.831	1508.0	1.3379	0.030200
779.78	85.836	1509.9	1.3378	0.030200
780.74	85.941	1511.8	1.3380	0.031500
781.71	85.946	1513.7	1.3371	0.031400
782.67	85.950	1515.7	1.3383	0.031400
783.64	85.955	1517.6	1.3379	0.031300
784.60	85.960	1519.5	1.3378	0.031300
785.57	86.065	1521.5	1.3391	0.032600
786.53	86.070	1523.4	1.3382	0.032500
787.50	86.075	1525.3	1.3376	0.032500
788.46	86.080	1527.3	1.3391	0.032500
789.42	86.085	1529.2	1.3389	0.032400
790.39	86.190	1531.1	1.3391	0.033700
791.35	86.195	1533.0	1.3382	0.033600
792.32	86.199	1535.0	1.3396	0.033600
793.28	86.304	1536.9	1.3394	0.033500
794.25	86.309	1538.8	1.3388	0.034800
795.21	86.314	1540.8	1.3398	0.034700
796.18	86.419	1542.7	1.3392	0.034700
797.14	86.424	1544.6	1.3397	0.034700
798.11	86.429	1546.5	1.3391	0.035900
799.07	86.434	1548.5	1.3401	0.035900
800.03	86.539	1550.4	1.3394	0.035800
801.00	86.544	1552.3	1.3390	0.035800
801.96	86.648	1554.3	1.3408	0.035700
802.93	86.653	1556.2	1.3403	0.037000
803.89	86.658	1558.1	1.3402	0.036900
804.86	86.663	1560.0	1.3398	0.036900
805.82	86.768	1562.0	1.3413	0.038100
806.78	86.773	1563.9	1.3404	0.038000
807.75	86.878	1565.8	1.3400	0.038000
808.71	86.883	1567.8	1.3415	0.039200
809.68	86.988	1569.7	1.3404	0.039200
810.64	86.993	1571.6	1.3406	0.039100
811.61	87.097	1573.5	1.3402	0.039100
812.57	87.102	1575.5	1.3418	0.040300
813.54	87.107	1577.4	1.3410	0.040300
814.50	87.212	1579.3	1.3405	0.040200
815.47	87.217	1581.3	1.3422	0.041400
816.43	87.322	1583.2	1.3412	0.041400
817.39	87.327	1585.1	1.3417	0.041300
818.36	87.432	1587.0	1.3410	0.042500
819.32	87.437	1589.0	1.3425	0.042500
820.29	87.442	1590.9	1.3421	0.042400
821.25	87.546	1592.8	1.3415	0.043600
822.22	87.551	1594.8	1.3433	0.043600
823.18	87.656	1596.7	1.3427	0.044800
824.15	87.661	1598.6	1.3420	0.044700
825.11	87.766	1600.6	1.3439	0.045900
826.08	87.871	1602.5	1.3432	0.045900
827.04	87.876	1604.4	1.3437	0.047100
828.00	87.981	1606.3	1.3426	0.048300
828.97	87.986	1608.3	1.3445	0.048200
829.93	88.091	1610.2	1.3439	0.049400
830.90	88.196	1612.1	1.3428	0.050600
831.86	88.200	1614.1	1.3449	0.050500
832.83	88.205	1616.0	1.3444	0.051700
833.79	88.310	1617.9	1.3448	0.052900
834.76	88.415	1619.8	1.3440	0.054100
835.72	88.520	1621.8	1.3460	0.056500
836.68	88.525	1623.7	1.3445	0.057700
837.65	88.630	1625.6	1.3433	0.058900
838.61	88.635	1627.6	1.3451	0.061300
839.58	88.740	1629.5	1.3433	0.062500
840.54	88.745	1631.4	1.3426	0.065000
841.51	88.849	1633.3	1.3402	0.066200
842.47	88.854	1635.3	1.3414	0.068600
843.44	88.959	1637.2	1.3384	0.069800
844.40	89.064	1639.1	1.3355	0.071000
845.36	89.069	1641.1	1.3366	0.072200
846.33	89.174	1643.0	1.3335	0.073400
847.29	89.279	1644.9	1.3319	0.074600
848.26	89.284	1646.8	1.3281	0.075900
849.22	89.389	1648.8	1.3289	0.075800
850.19	89.494	1650.7	1.3254	0.077000
851.15	89.498	1652.6	1.3216	0.076900
852.12	89.603	1654.6	1.3224	0.076800
853.08	89.608	1656.5	1.3190	0.076800
854.04	89.713	1658.4	1.3173	0.076700
855.01	89.818	1660.3	1.3139	0.076600
855.97	89.923	1662.3	1.3145	0.076500
856.94	89.928	1664.2	1.3114	0.075200
857.90	90.033	1666.1	1.3085	0.075100
858.87	90.138	1668.1	1.3094	0.075000
859.83	90.243	1670.0	1.3063	0.073700
860.80	90.347	1671.9	1.3052	0.073600
861.76	90.352	1673.8	1.3019	0.073500
862.72	90.457	1675.8	1.3029	0.072100
863.69	90.462	1677.7	1.2999	0.072100
864.65	90.567	1679.6	1.2968	0.070700
865.62	90.672	1681.6	1.2981	0.069300
866.58	90.777	1683.5	1.2954	0.069300
867.55	90.782	1685.4	1.2924	0.067900
868.51	90.887	1687.4	1.2936	0.066600
869.48	90.992	1689.3	1.2906	0.066500
870.44	90.996	1691.2	1.2894	0.063900
871.41	91.101	1693.1	1.2870	0.063800
872.37	91.206	1695.1	1.2874	0.062400
873.33	91.311	1697.0	1.2849	0.059800
874.30	91.416	1698.9	1.2830	0.058500
875.26	91.421	1700.9	1.2838	0.057200
876.23	91.526	1702.8	1.2818	0.054600
877.19	91.631	1704.7	1.2813	0.053300
878.16	91.636	1706.6	1.2793	0.051900
879.12	91.741	1708.6	1.2805	0.049400
880.09	91.846	1710.5	1.2789	0.048100
881.05	91.950	1712.4	1.2776	0.045600
882.02	91.955	1714.4	1.2788	0.044300
882.98	92.060	1716.3	1.2774	0.041800
883.94	92.165	1718.2	1.2777	0.039300
884.91	92.270	1720.1	1.2773	0.038100
885.87	92.275	1722.1	1.2784	0.036900
886.84	92.380	1724.0	1.2775	0.034400
887.80	92.485	1725.9	1.2775	0.032000
888.77	92.590	1727.9	1.2793	0.030800
889.73	92.595	1729.8	1.2788	0.029500
890.70	92.699	1731.7	1.2794	0.027200
891.66	92.804	1733.6	1.2797	0.026000
892.62	92.909	1735.6	1.2811	0.024800
893.59	92.914	1737.5	1.2814	0.022400
894.55	93.019	1739.4	1.2817	0.022400
895.52	93.124	1741.4	1.2831	0.020100
896.48	93.229	1743.3	1.2838	0.019000
897.45	93.334	1745.2	1.2846	0.017800
898.41	93.339	1747.2	1.2861	0.017800
899.38	93.444	1749.1	1.2862	0.016700
900.34	93.548	1751.0	1.2870	0.015500
901.30	93.653	1752.9	1.2877	0.014400
902.27	93.758	1754.9	1.2891	0.014400
903.23	93.763	1756.8	1.2893	0.013300
904.20	93.868	1758.7	1.2901	0.012200
905.16	93.973	1760.7	1.2914	0.012200
906.13	94.078	1762.6	1.2919	0.011100
907.09	94.083	1764.5	1.2927	0.011100
908.06	94.188	1766.4	1.2932	0.0100000
909.02	94.293	1768.4	1.2944	0.0100000
909.98	94.397	1770.3	1.2950	0.0089000
910.95	94.402	1772.2	1.2957	0.0089000
911.91	94.507	1774.2	1.2966	0.0089999
912.88	94.612	1776.1	1.2970	0.0079000
913.84	94.717	1778.0	1.2979	0.0079000
914.81	94.722	1779.9	1.2982	0.0079000
915.77	94.827	1781.9	1.2991	0.0068001
916.74	94.932	1783.8	1.2999	0.0068001
917.70	95.037	1785.7	1.3003	0.0068001
918.66	95.042	1787.7	1.3009	0.0069000
919.63	95.146	1789.6	1.3013	0.0058000
920.59	95.251	1791.5	1.3021	0.0058000
921.56	95.356	1793.4	1.3025	0.0058000
922.52	95.461	1795.4	1.3030	0.0058000
923.49	95.466	1797.3	1.3035	0.0046999
924.45	95.571	1799.2	1.3042	0.0048000
925.42	95.676	1801.2	1.3049	0.0048000
926.38	95.681	1803.1	1.3050	0.0048000
927.35	95.786	1805.0	1.3056	0.0037000
928.31	95.891	1806.9	1.3064	0.0037000
929.27	95.996	1808.9	1.3072	0.0038000
930.24	96.000	1810.8	1.3076	0.0038000
931.20	96.105	1812.7	1.3080	0.0038000
932.17	96.210	1814.7	1.3085	0.0038000
933.13	96.215	1816.6	1.3086	0.0038000
934.10	96.320	1818.5	1.3090	0.0028000
935.06	96.425	1820.5	1.3099	0.0028000
936.03	96.430	1822.4	1.3104	0.0028000
936.99	96.535	1824.3	1.3109	0.0028000
937.95	96.640	1826.2	1.3113	0.0028000
938.92	96.745	1828.2	1.3118	0.0028000
939.88	96.749	1830.1	1.3122	0.0029000
940.85	96.854	1832.0	1.3124	0.0029000
941.81	96.859	1834.0	1.3128	0.0029000
942.78	96.964	1835.9	1.3128	0.0029000
943.74	97.069	1837.8	1.3132	0.0017999
944.71	97.174	1839.7	1.3139	0.0019000
945.67	97.179	1841.7	1.3145	0.0019000
946.63	97.284	1843.6	1.3149	0.0019000
947.60	97.289	1845.5	1.3153	0.0019000
948.56	97.394	1847.5	1.3158	0.0019000
949.53	97.498	1849.4	1.3161	0.0019000
950.49	97.503	1851.3	1.3164	0.0019000
951.46	97.608	1853.2	1.3167	0.0019000
952.42	97.613	1855.2	1.3171	0.0020000
953.39	97.718	1857.1	1.3173	0.0020000
954.35	97.823	1859.0	1.3175	0.0020000
955.31	97.828	1861.0	1.3176	0.0020000
956.28	97.933	1862.9	1.3179	0.00090003
957.24	97.938	1864.8	1.3185	0.0010000
958.21	98.043	1866.7	1.3190	0.0010000
959.17	98.047	1868.7	1.3195	0.0010000
960.14	98.052	1870.6	1.3199	0.0010000
961.10	98.157	1872.5	1.3202	0.0010000
962.07	98.162	1874.5	1.3206	0.0010000
963.03	98.267	1876.4	1.3210	0.0010999
964.00	98.272	1878.3	1.3213	0.0010999
964.96	98.377	1880.2	1.3216	0.0010999
965.92	98.382	1882.2	1.3220	0.0010999
966.89	98.487	1884.1	1.3223	0.0010999
967.85	98.492	1886.0	1.3226	0.0010999
968.82	98.496	1888.0	1.3229	0.0010999
969.78	98.601	1889.9	1.3232	0.0010999
970.75	98.606	1891.8	1.3235	0.0010999
971.71	98.711	1893.8	1.3238	0.0012000
972.68	98.716	1895.7	1.3241	0.0012000
973.64	98.721	1897.6	1.3243	0.0012000
974.60	98.826	1899.5	1.3246	0.0012000
975.57	98.831	1901.5	1.3249	0.0012000
976.53	98.836	1903.4	1.3252	0.0012000
977.50	98.941	1905.3	1.3254	0.0012000
978.46	98.946	1907.3	1.3257	0.0012000
979.43	98.950	1909.2	1.3260	0.0012000
980.39	98.955	1911.1	1.3262	0.0012000
981.36	99.060	1913.0	1.3265	0.0012000
982.32	99.065	1915.0	1.3268	0.0012000
983.28	99.070	1916.9	1.3270	0.0013000
984.25	99.175	1918.8	1.3272	0.0013000
985.21	99.180	1920.8	1.3275	0.0013000
986.18	99.185	1922.7	1.3278	0.0013000
987.14	99.190	1924.6	1.3280	0.0013000
988.11	99.195	1926.5	1.3282	0.0013000
989.07	99.299	1928.5	1.3285	0.0013000
990.04	99.304	1930.4	1.3287	0.0013000
991.00	99.309	1932.3	1.3290	0.0013000
991.97	99.314	1934.3	1.3293	0.0013000
992.93	99.319	1936.2	1.3295	0.0013000
993.89	99.324	1938.1	1.3297	0.0013000
994.86	99.429	1940.0	1.3299	0.0013000
995.82	99.434	1942.0	1.3302	0.0014000
996.79	99.439	1943.9	1.3304	0.0014000
997.75	99.444	1945.8	1.3306	0.0014000
998.72	99.448	1947.8	1.3309	0.0014000
999.68	99.453	1949.7	1.3311	0.0014000
1000.6	99.458	1951.6	1.3314	0.0014000
1001.6	99.463	1953.5	1.3316	0.0014000
1002.6	99.468	1955.5	1.3319	0.0014000
1003.5	99.573	1957.4	1.3321	0.0014000
1004.5	99.578	1959.3	1.3323	0.0014000
1005.5	99.583	1961.3	1.3326	0.0014000
1006.4	99.588	1963.2	1.3328	0.0014000
1007.4	99.593	1965.1	1.3330	0.0014000
1008.4	99.597	1967.1	1.3333	0.0014000
1009.3	99.602	1969.0	1.3335	0.0015000
1010.3	99.607	1970.9	1.3337	0.0015000
1011.3	99.612	1972.8	1.3340	0.0015000
1012.2	99.617	1974.8	1.3343	0.0015000
1013.2	99.622	1976.7	1.3345	0.0015000
1014.1	99.627	1978.6	1.3347	0.0015000
1015.1	99.632	1980.6	1.3350	0.0015000
1016.1	99.637	1982.5	1.3352	0.0015000
1017.0	99.642	1984.4	1.3355	0.0015000
1018.0	99.647	1986.3	1.3357	0.0015000
1019.0	99.651	1988.3	1.3361	0.0015000
1019.9	99.756	1990.2	1.3363	0.0015000
1020.9	99.761	1992.1	1.3366	0.0015000
1021.9	99.766	1994.1	1.3370	0.0016000
1022.8	99.771	1996.0	1.3375	0.0016000
1023.8	99.776	1997.9	1.3375	0.0025001
1024.8	99.781	1999.8	1.3377	0.0016000
1025.7	99.786	2001.8	1.3382	0.0025001
1026.7	99.791	2003.7	1.3382	0.0025001
1027.7	99.796	2005.6	1.3382	0.0025001
1028.6	99.900	2007.6	1.3385	0.0025001
1029.6	99.900	2009.5	1.3386	0.0025001
1030.5	99.900	2011.4	1.3389	0.0025001
1031.5	99.900	2013.3	1.3390	0.0025001
1032.5	99.900	2015.3	1.3394	0.0026000
1033.4	99.900	2017.2	1.3396	0.0026000
1034.4	99.900	2019.1	1.3399	0.0026000
1035.4	99.900	2021.1	1.3406	0.0026000
1036.3	99.900	2023.0	1.3407	0.0035000
1037.3	99.900	2024.9	1.3406	0.0035000
1038.3	99.900	2026.8	1.3407	0.0035000
1039.2	99.900	2028.8	1.3409	0.0035000
1040.2	99.900	2030.7	1.3411	0.0035000
1041.2	99.900	2032.6	1.3412	0.0035000
1042.1	99.900	2034.6	1.3416	0.0035000
1043.1	99.900	2036.5	1.3419	0.0035000
1044.0	99.900	2038.4	1.3423	0.0035000
1045.0	99.900	2040.4	1.3426	0.0045000
1046.0	99.900	2042.3	1.3424	0.0045000
1046.9	99.900	2044.2	1.3425	0.0045000
1047.9	99.900	2046.1	1.3426	0.0045000
1048.9	99.900	2048.1	1.3430	0.0045000
1049.8	99.900	2050.0	1.3432	0.0045000
1050.8	99.900	2051.9	1.3435	0.0045000
1051.8	99.900	2053.9	1.3439	0.0053999
1052.7	99.900	2055.8	1.3437	0.0053999
1053.7	99.900	2057.7	1.3437	0.0053999
1054.7	99.900	2059.6	1.3438	0.0053999
1055.6	99.900	2061.6	1.3442	0.0053999
1056.6	99.900	2063.5	1.3443	0.0053999
1057.6	99.900	2065.4	1.3446	0.0053999
1058.5	99.900	2067.4	1.3450	0.0063000
1059.5	99.900	2069.3	1.3448	0.0063000
1060.4	99.900	2071.2	1.3448	0.0063000
1061.4	99.900	2073.1	1.3448	0.0063000
1062.4	99.900	2075.1	1.3452	0.0063000
1063.3	99.900	2077.0	1.3454	0.0063000
1064.3	99.900	2078.9	1.3457	0.0063000
1065.3	99.900	2080.9	1.3461	0.0072000
1066.2	99.900	2082.8	1.3458	0.0072000
1067.2	99.900	2084.7	1.3459	0.0072000
1068.2	100.00	2086.6	1.3459	0.0072000
1069.1	100.00	2088.6	1.3465	0.0072000
1070.1	99.900	2090.5	1.3463	0.0081000
1071.1	99.900	2092.4	1.3463	0.0072000
1072.0	99.900	2094.4	1.3469	0.0081000
1073.0	99.900	2096.3	1.3467	0.0081000
1073.9	99.900	2098.2	1.3469	0.0081000
1074.9	99.900	2100.1	1.3471	0.0081000
1075.9	99.900	2102.1	1.3475	0.0089999
1076.8	99.900	2104.0	1.3471	0.0089999
1077.8	99.900	2105.9	1.3470	0.0089999
1078.8	99.900	2107.9	1.3474	0.0089999
1079.7	99.900	2109.8	1.3474	0.0089999
1080.7	99.900	2111.7	1.3476	0.0089999
1081.7	99.900	2113.7	1.3481	0.0099000
1082.6	99.900	2115.6	1.3478	0.0099000
1083.6	99.900	2117.5	1.3479	0.0099000
1084.6	99.900	2119.4	1.3479	0.0098000
1085.5	99.900	2121.4	1.3484	0.010700
1086.5	99.900	2123.3	1.3479	0.010700
1087.4	99.900	2125.2	1.3477	0.010700
1088.4	99.900	2127.2	1.3482	0.010700
1089.4	99.900	2129.1	1.3481	0.010700
1090.3	99.900	2131.0	1.3485	0.010700
1091.3	99.900	2132.9	1.3483	0.011600
1092.3	99.900	2134.9	1.3486	0.011600
1093.2	99.900	2136.8	1.3484	0.011600
1094.2	99.900	2138.7	1.3484	0.011600
1095.2	99.900	2140.7	1.3489	0.012400
1096.1	99.900	2142.6	1.3484	0.012400
1097.1	99.900	2144.5	1.3484	0.012400
1098.1	99.900	2146.4	1.3484	0.012400
1099.0	99.900	2148.4	1.3488	0.013300
1100.0	99.900	2150.3	1.3483	0.013300
1101.0	99.800	2152.2	1.3479	0.013200
1101.9	99.900	2154.2	1.3484	0.013200
1102.9	99.900	2156.1	1.3481	0.013200
1103.8	99.900	2158.0	1.3484	0.013200
1104.8	99.900	2159.9	1.3481	0.014100
1105.8	99.900	2161.9	1.3483	0.014100
1106.7	99.900	2163.8	1.3479	0.014100
1107.7	99.900	2165.7	1.3475	0.014000
1108.7	99.900	2167.7	1.3481	0.014000
1109.6	99.900	2169.6	1.3478	0.014000
1110.6	99.900	2171.5	1.3478	0.014000
1111.6	99.800	2173.5	1.3483	0.014900
1112.5	99.900	2175.4	1.3477	0.014900
1113.5	99.900	2177.3	1.3475	0.014900
1114.5	99.900	2179.2	1.3472	0.014800
1115.4	99.900	2181.2	1.3477	0.014800
1116.4	99.900	2183.1	1.3474	0.014800
1117.3	99.800	2185.0	1.3473	0.014800
1118.3	99.900	2187.0	1.3478	0.015700
1119.3	99.800	2188.9	1.3471	0.015600
1120.2	99.800	2190.8	1.3469	0.015600
1121.2	99.800	2192.7	1.3464	0.015600
1122.2	99.800	2194.7	1.3469	0.015600
1123.1	99.800	2196.6	1.3464	0.015600
1124.1	99.800	2198.5	1.3460	0.015600
1125.1	99.800	2200.5	1.3465	0.015500
1126.0	99.800	2202.4	1.3461	0.015500
1127.0	99.800	2204.3	1.3460	0.015500
1128.0	99.800	2206.2	1.3456	0.015500
1128.9	99.800	2208.2	1.3461	0.015500
1129.9	99.800	2210.1	1.3457	0.015500
1130.8	99.800	2212.0	1.3454	0.015400
1131.8	99.800	2214.0	1.3458	0.015400
1132.8	99.800	2215.9	1.3454	0.015400
1133.7	99.800	2217.8	1.3453	0.015400
1134.7	99.800	2219.7	1.3449	0.015400
1135.7	99.800	2221.7	1.3453	0.015400
1136.6	99.800	2223.6	1.3447	0.015400
1137.6	99.800	2225.5	1.3445	0.014500
1138.6	99.800	2227.5	1.3450	0.015300
1139.5	99.800	2229.4	1.3445	0.014400
1140.5	99.800	2231.3	1.3447	0.014400
1141.5	99.800	2233.2	1.3445	0.014400
1142.4	99.800	2235.2	1.3450	0.014400
1143.4	99.800	2237.1	1.3447	0.014400
1144.4	99.800	2239.0	1.3443	0.014400
1145.3	99.800	2241.0	1.3447	0.014400
1146.3	99.800	2242.9	1.3442	0.014400
1147.2	99.800	2244.8	1.3442	0.013500
1148.2	99.800	2246.7	1.3442	0.013500
1149.2	99.800	2248.7	1.3448	0.013500
1150.1	99.800	2250.6	1.3445	0.013500
1151.1	99.800	2252.5	1.3442	0.013400
1152.1	99.800	2254.5	1.3447	0.013400
1153.0	99.800	2256.4	1.3442	0.013400
1154.0	99.700	2258.3	1.3440	0.012600
1155.0	99.800	2260.3	1.3447	0.012600
1155.9	99.800	2262.2	1.3446	0.012500
1156.9	99.800	2264.1	1.3447	0.012500
1157.9	99.700	2266.0	1.3445	0.012500
1158.8	99.800	2268.0	1.3449	0.012500
1159.8	99.700	2269.9	1.3444	0.012500
1160.7	99.700	2271.8	1.3443	0.011600
1161.7	99.700	2273.8	1.3451	0.011700
1162.7	99.700	2275.7	1.3450	0.011600
1163.6	99.700	2277.6	1.3451	0.011600
1164.6	99.700	2279.5	1.3450	0.011600
1165.6	99.700	2281.5	1.3455	0.011600
1166.5	99.700	2283.4	1.3453	0.011600
1167.5	99.700	2285.3	1.3450	0.011600
1168.5	99.700	2287.3	1.3452	0.011600
1169.4	99.700	2289.2	1.3451	0.010700
1170.4	99.700	2291.1	1.3454	0.010700
1171.4	99.700	2293.0	1.3454	0.010700
1172.3	99.700	2295.0	1.3459	0.010700
1173.3	99.700	2296.9	1.3458	0.010700
1174.3	99.700	2298.8	1.3457	0.010700
1175.2	99.700	2300.8	1.3461	0.010700
1176.2	99.700	2302.7	1.3459	0.010700
1177.1	99.700	2304.6	1.3457	0.010700
1178.1	99.700	2306.5	1.3456	0.0099000
1179.1	99.700	2308.5	1.3464	0.0099000
1180.0	99.700	2310.4	1.3464	0.0099000
1181.0	99.700	2312.3	1.3463	0.0098000
1182.0	99.700	2314.3	1.3468	0.0098000
1182.9	99.700	2316.2	1.3467	0.0098000
1183.9	99.700	2318.1	1.3466	0.0098000
1184.9	99.600	2320.1	1.3470	0.0098000
1185.8	99.700	2322.0	1.3468	0.0098000
1186.8	99.700	2323.9	1.3467	0.0098000
1187.8	99.600	2325.8	1.3466	0.0089999
1188.7	99.700	2327.8	1.3473	0.0089999
1189.7	99.700	2329.7	1.3473	0.0089999
1190.6	99.600	2331.6	1.3473	0.0089999
1191.6	99.600	2333.6	1.3478	0.0089999
1192.6	99.600	2335.5	1.3477	0.0089999
1193.5	99.600	2337.4	1.3478	0.0089999
1194.5	99.600	2339.3	1.3477	0.0089999
1195.5	99.600	2341.3	1.3481	0.0089999
1196.4	99.600	2343.2	1.3479	0.0089000
1197.4	99.600	2345.1	1.3476	0.0089000
1198.4	99.600	2347.1	1.3480	0.0081000
1199.3	99.600	2349.0	1.3482	0.0081000
1200.3	99.600	2350.9	1.3485	0.0081000
1201.3	99.600	2352.8	1.3485	0.0081000
1202.2	99.600	2354.8	1.3489	0.0081000
1203.2	99.600	2356.7	1.3489	0.0081000
1204.2	99.600	2358.6	1.3488	0.0081000
1205.1	99.600	2360.6	1.3492	0.0081000
1206.1	99.600	2362.5	1.3490	0.0081000
1207.0	99.600	2364.4	1.3489	0.0081000
1208.0	99.600	2366.3	1.3489	0.0073000
1209.0	99.600	2368.3	1.3495	0.0073000
1209.9	99.600	2370.2	1.3496	0.0073000
1210.9	99.600	2372.1	1.3497	0.0073000
1211.9	99.600	2374.1	1.3501	0.0073000
1212.8	99.500	2376.0	1.3501	0.0073000
1213.8	99.500	2377.9	1.3502	0.0073000
1214.8	99.500	2379.8	1.3501	0.0073000
1215.7	99.600	2381.8	1.3504	0.0073000
1216.7	99.500	2383.7	1.3502	0.0073000
1217.7	99.500	2385.6	1.3502	0.0065000
1218.6	99.500	2387.6	1.3508	0.0065000
1219.6	99.500	2389.5	1.3510	0.0065000
1220.5	99.500	2391.4	1.3511	0.0065000
1221.5	99.500	2393.4	1.3515	0.0065000
1222.5	99.500	2395.3	1.3515	0.0065000
1223.4	99.500	2397.2	1.3516	0.0065000
1224.4	99.500	2399.1	1.3516	0.0065000
1225.4	99.500	2401.1	1.3520	0.0065000
1226.3	99.500	2403.0	1.3519	0.0065000
1227.3	99.500	2404.9	1.3517	0.0064000
1228.3	99.500	2406.9	1.3521	0.0057000
1229.2	99.500	2408.8	1.3523	0.0057000
1230.2	99.500	2410.7	1.3526	0.0057000
1231.2	99.500	2412.6	1.3527	0.0057000
1232.1	99.400	2414.6	1.3532	0.0057000
1233.1	99.400	2416.5	1.3532	0.0057000
1234.0	99.500	2418.4	1.3533	0.0057000
1235.0	99.500	2420.4	1.3537	0.0057000
1236.0	99.500	2422.3	1.3537	0.0057000
1236.9	99.400	2424.2	1.3539	0.0057000
1237.9	99.400	2426.1	1.3539	0.0057000
1238.9	99.400	2428.1	1.3542	0.0057000
1239.8	99.400	2430.0	1.3542	0.0057000
1240.8	99.400	2431.9	1.3542	0.0057000
1241.8	99.400	2433.9	1.3545	0.0057000
1242.7	99.400	2435.8	1.3544	0.0057000
1243.7	99.400	2437.7	1.3546	0.0049000
1244.7	99.400	2439.6	1.3547	0.0057000
1245.6	99.400	2441.6	1.3549	0.0049000
1246.6	99.400	2443.5	1.3552	0.0049000
1247.6	99.400	2445.4	1.3553	0.0049000
1248.5	99.400	2447.4	1.3557	0.0049000
1249.5	99.400	2449.3	1.3558	0.0049000
1250.4	99.400	2451.2	1.3560	0.0049000
1251.4	99.300	2453.1	1.3561	0.0049000
1252.4	99.400	2455.1	1.3564	0.0049000
1253.3	99.400	2457.0	1.3565	0.0049000
1254.3	99.300	2458.9	1.3565	0.0049000
1255.3	99.300	2460.9	1.3568	0.0049000
1256.2	99.300	2462.8	1.3567	0.0049000
1257.2	99.300	2464.7	1.3569	0.0041000
1258.2	99.300	2466.7	1.3574	0.0049000
1259.1	99.300	2468.6	1.3572	0.0049000
1260.1	99.300	2470.5	1.3575	0.0041000
1261.1	99.300	2472.4	1.3575	0.0049000
1262.0	99.300	2474.4	1.3577	0.0041000
1263.0	99.300	2476.3	1.3580	0.0041000
1263.9	99.300	2478.2	1.3582	0.0041000
1264.9	99.300	2480.2	1.3585	0.0041000
1265.9	99.300	2482.1	1.3587	0.0041000
1266.8	99.300	2484.0	1.3589	0.0041000
1267.8	99.300	2485.9	1.3590	0.0041000
1268.8	99.300	2487.9	1.3593	0.0041000
1269.7	99.200	2489.8	1.3594	0.0041000
1270.7	99.300	2491.7	1.3595	0.0041000
1271.7	99.200	2493.7	1.3598	0.0041000
1272.6	99.200	2495.6	1.3598	0.0041000
1273.6	99.200	2497.5	1.3600	0.0041000
1274.6	99.200	2499.4	1.3600	0.0041000
1275.5	99.200	2501.4	1.3602	0.0041000
1276.5	99.200	2503.3	1.3601	0.0041000
1277.5	99.200	2505.2	1.3603	0.0034000
1278.4	99.200	2507.2	1.3610	0.0034000
1279.4	99.200	2509.1	1.3609	0.0041000
1280.3	99.200	2511.0	1.3610	0.0034000
1281.3	99.200	2512.9	1.3613	0.0034000
1282.3	99.200	2514.9	1.3616	0.0034000
1283.2	99.100	2516.8	1.3618	0.0034000
1284.2	99.200	2518.7	1.3620	0.0034000
1285.2	99.200	2520.7	1.3623	0.0034000
1286.1	99.200	2522.6	1.3624	0.0034000
1287.1	99.100	2524.5	1.3626	0.0034000
1288.1	99.100	2526.4	1.3627	0.0034000
1289.0	99.100	2528.4	1.3631	0.0034000
1290.0	99.100	2530.3	1.3632	0.0034000
1291.0	99.100	2532.2	1.3633	0.0034000
1291.9	99.100	2534.2	1.3635	0.0034000
1292.9	99.100	2536.1	1.3636	0.0034000
1293.8	99.100	2538.0	1.3636	0.0034000
1294.8	99.100	2540.0	1.3641	0.0027000
1295.8	99.100	2541.9	1.3644	0.0034000
1296.7	99.100	2543.8	1.3643	0.0034000
1297.7	99.100	2545.7	1.3642	0.0034000
1298.7	99.100	2547.7	1.3645	0.0027000
1299.6	99.100	2549.6	1.3649	0.0027000
1300.6	99.100	2551.5	1.3651	0.0027000
1301.6	99.000	2553.5	1.3655	0.0027000
1302.5	99.000	2555.4	1.3657	0.0027000
1303.5	99.000	2557.3	1.3659	0.0027000
1304.5	99.000	2559.2	1.3661	0.0027000
1305.4	99.000	2561.2	1.3664	0.0027000
1306.4	99.000	2563.1	1.3666	0.0027000
1307.3	99.000	2565.0	1.3668	0.0027000
1308.3	99.000	2567.0	1.3671	0.0027000
1309.3	99.000	2568.9	1.3672	0.0027000
1310.2	99.000	2570.8	1.3675	0.0027000
1311.2	99.000	2572.7	1.3676	0.0027000
1312.2	99.000	2574.7	1.3679	0.0027000
1313.1	99.000	2576.6	1.3681	0.0027000
1314.1	99.000	2578.5	1.3682	0.0027000
1315.1	99.000	2580.5	1.3685	0.0027000
1316.0	99.000	2582.4	1.3686	0.0027000
1317.0	99.000	2584.3	1.3688	0.0027000
1318.0	98.900	2586.2	1.3689	0.0027000
1318.9	99.000	2588.2	1.3690	0.0027000
1319.9	98.900	2590.1	1.3693	0.0020000
1320.9	98.900	2592.0	1.3696	0.0027000
1321.8	99.000	2594.0	1.3699	0.0020000
1322.8	98.900	2595.9	1.3702	0.0027000
1323.7	98.900	2597.8	1.3700	0.0027000
1324.7	98.900	2599.8	1.3703	0.0020000
1325.7	98.900	2601.7	1.3707	0.0020000
1326.6	98.900	2603.6	1.3710	0.0020000
1327.6	98.900	2605.5	1.3712	0.0020000
1328.6	98.900	2607.5	1.3716	0.0020000
1329.5	98.900	2609.4	1.3718	0.0020000
1330.5	98.900	2611.3	1.3720	0.0020000
1331.5	98.900	2613.3	1.3724	0.0020000
1332.4	98.900	2615.2	1.3726	0.0020000
1333.4	98.900	2617.1	1.3728	0.0020000
1334.4	98.900	2619.0	1.3730	0.0020000
1335.3	98.800	2621.0	1.3733	0.0020000
1336.3	98.800	2622.9	1.3736	0.0020000
1337.2	98.800	2624.8	1.3738	0.0020000
1338.2	98.800	2626.8	1.3741	0.0020000
1339.2	98.800	2628.7	1.3743	0.0020000
1340.1	98.800	2630.6	1.3745	0.0020000
1341.1	98.800	2632.5	1.3747	0.0020000
1342.1	98.800	2634.5	1.3751	0.0020000
1343.0	98.800	2636.4	1.3753	0.0020000
1344.0	98.800	2638.3	1.3755	0.0020000
1345.0	98.800	2640.3	1.3758	0.0020000
1345.9	98.800	2642.2	1.3760	0.0020000
1346.9	98.800	2644.1	1.3763	0.0020000
1347.9	98.800	2646.0	1.3765	0.0020000
1348.8	98.800	2648.0	1.3768	0.0020000
1349.8	98.800	2649.9	1.3770	0.0020000
1350.8	98.800	2651.8	1.3772	0.0020000
1351.7	98.700	2653.8	1.3775	0.0020000
1352.7	98.700	2655.7	1.3777	0.0020000
1353.6	98.700	2657.6	1.3780	0.0020000
1354.6	98.700	2659.5	1.3782	0.0020000
1355.6	98.700	2661.5	1.3785	0.0020000
1356.5	98.700	2663.4	1.3787	0.0020000
1357.5	98.700	2665.3	1.3789	0.0020000
1358.5	98.700	2667.3	1.3792	0.0020000
1359.4	98.700	2669.2	1.3794	0.0020000
1360.4	98.700	2671.1	1.3797	0.0020000
1361.4	98.700	2673.0	1.3798	0.0020000
1362.3	98.700	2675.0	1.3800	0.0020000
1363.3	98.700	2676.9	1.3803	0.0013000
1364.3	98.700	2678.8	1.3809	0.0013000
1365.2	98.700	2680.8	1.3812	0.0020000
1366.2	98.700	2682.7	1.3815	0.0013000
1367.1	98.600	2684.6	1.3819	0.0020000
1368.1	98.700	2686.6	1.3821	0.0020000
1369.1	98.700	2688.5	1.3822	0.0020000
1370.0	98.600	2690.4	1.3823	0.0020000
1371.0	98.600	2692.3	1.3826	0.0013000
1372.0	98.600	2694.3	1.3833	0.0013000
1372.9	98.600	2696.2	1.3836	0.0020000
1373.9	98.600	2698.1	1.3836	0.0020000
1374.9	98.600	2700.1	1.3837	0.0020000
1375.8	98.600	2702.0	1.3839	0.0013000
1376.8	98.600	2703.9	1.3844	0.0013000
1377.8	98.600	2705.8	1.3848	0.0013000
1378.7	98.600	2707.8	1.3853	0.0013000
1379.7	98.600	2709.7	1.3856	0.0013000
1380.6	98.600	2711.6	1.3860	0.0013000
1381.6	98.600	2713.6	1.3866	0.0013000
1382.6	98.600	2715.5	1.3867	0.0020000
1383.5	98.600	2717.4	1.3869	0.0013000
1384.5	98.600	2719.3	1.3875	0.0013000
1385.5	98.600	2721.3	1.3880	0.0020000
1386.4	98.600	2723.2	1.3881	0.0020000
1387.4	98.600	2725.1	1.3882	0.0020000
1388.4	98.500	2727.1	1.3886	0.0020000
1389.3	98.500	2729.0	1.3888	0.0020000
1390.3	98.500	2730.9	1.3891	0.0020000
1391.3	98.500	2732.8	1.3894	0.0020000
1392.2	98.500	2734.8	1.3898	0.0020000
1393.2	98.500	2736.7	1.3900	0.0020000
1394.2	98.500	2738.6	1.3903	0.0020000
1395.1	98.500	2740.6	1.3907	0.0020000
1396.1	98.500	2742.5	1.3910	0.0020000
1397.0	98.500	2744.4	1.3913	0.0020000
1398.0	98.500	2746.4	1.3917	0.0020000
1399.0	98.500	2748.3	1.3919	0.0020000
1399.9	98.500	2750.2	1.3923	0.0020000
1400.9	98.500	2752.1	1.3926	0.0020000
1401.9	98.500	2754.1	1.3930	0.0020000
1402.8	98.400	2756.0	1.3933	0.0020000
1403.8	98.400	2757.9	1.3936	0.0020000
1404.8	98.400	2759.9	1.3941	0.0019000
1405.7	98.400	2761.8	1.3944	0.0019000
1406.7	98.400	2763.7	1.3947	0.0019000
1407.7	98.400	2765.6	1.3950	0.0019000
1408.6	98.400	2767.6	1.3955	0.0019000
1409.6	98.400	2769.5	1.3958	0.0019000
1410.5	98.400	2771.4	1.3962	0.0019000
1411.5	98.400	2773.4	1.3966	0.0019000
1412.5	98.400	2775.3	1.3970	0.0019000
1413.4	98.400	2777.2	1.3974	0.0019000
1414.4	98.400	2779.1	1.3977	0.0019000
1415.4	98.400	2781.1	1.3982	0.0019000
1416.3	98.400	2783.0	1.3986	0.0019000
1417.3	98.300	2784.9	1.3990	0.0019000
1418.3	98.300	2786.9	1.3996	0.0019000
1419.2	98.300	2788.8	1.4001	0.0019000
1420.2	98.300	2790.7	1.4005	0.0025001
1421.2	98.300	2792.6	1.4006	0.0025001
1422.1	98.300	2794.6	1.4010	0.0025001
1423.1	98.300	2796.5	1.4012	0.0025001
1424.1	98.300	2798.4	1.4017	0.0019000
1425.0	98.300	2800.4	1.4024	0.0025001
1426.0	98.300	2802.3	1.4026	0.0025001
1426.9	98.300	2804.2	1.4029	0.0025001
1427.9	98.300	2806.1	1.4033	0.0025001
1428.9	98.300	2808.1	1.4038	0.0025001
1429.8	98.300	2810.0	1.4041	0.0025001
1430.8	98.200	2811.9	1.4045	0.0025001
1431.8	98.300	2813.9	1.4050	0.0025001
1432.7	98.200	2815.8	1.4054	0.0025001
1433.7	98.300	2817.7	1.4059	0.0024000
1434.7	98.200	2819.6	1.4063	0.0024000
1435.6	98.200	2821.6	1.4068	0.0024000
1436.6	98.200	2823.5	1.4073	0.0024000
1437.6	98.200	2825.4	1.4078	0.0024000
1438.5	98.200	2827.4	1.4085	0.0024000
1439.5	98.200	2829.3	1.4089	0.0030000
1440.4	98.200	2831.2	1.4091	0.0030000
1441.4	98.200	2833.2	1.4095	0.0030000
1442.4	98.200	2835.1	1.4098	0.0030000
1443.3	98.200	2837.0	1.4104	0.0024000
1444.3	98.200	2838.9	1.4109	0.0030000
1445.3	98.200	2840.9	1.4114	0.0030000
1446.2	98.200	2842.8	1.4118	0.0030000
1447.2	98.200	2844.7	1.4122	0.0030000
1448.2	98.200	2846.7	1.4128	0.0029000
1449.1	98.200	2848.6	1.4132	0.0029000
1450.1	98.100	2850.5	1.4137	0.0029000
1451.1	98.100	2852.4	1.4141	0.0029000
1452.0	98.100	2854.4	1.4147	0.0029000
1453.0	98.100	2856.3	1.4152	0.0029000
1453.9	98.100	2858.2	1.4156	0.0029000
1454.9	98.100	2860.2	1.4163	0.0029000
1455.9	98.100	2862.1	1.4168	0.0029000
1456.8	98.100	2864.0	1.4173	0.0028000
1457.8	98.100	2865.9	1.4178	0.0028000
1458.8	98.100	2867.9	1.4185	0.0028000
1459.7	98.100	2869.8	1.4190	0.0028000
1460.7	98.100	2871.7	1.4195	0.0028000
1461.7	98.100	2873.7	1.4203	0.0028000
1462.6	98.000	2875.6	1.4208	0.0028000
1463.6	98.100	2877.5	1.4214	0.0027000
1464.6	98.100	2879.4	1.4220	0.0027000
1465.5	98.000	2881.4	1.4227	0.0027000
1466.5	98.000	2883.3	1.4233	0.0027000
1467.5	98.000	2885.2	1.4239	0.0027000
1468.4	98.000	2887.2	1.4248	0.0026000
1469.4	98.000	2889.1	1.4254	0.0026000
1470.3	98.000	2891.0	1.4262	0.0026000
1471.3	98.000	2892.9	1.4270	0.0026000
1472.3	98.000	2894.9	1.4278	0.0032001
1473.2	98.000	2896.8	1.4282	0.0032001
1474.2	98.000	2898.7	1.4288	0.0032001
1475.2	98.000	2900.7	1.4296	0.0031000
1476.1	98.000	2902.6	1.4302	0.0031000
1477.1	97.900	2904.5	1.4309	0.0031000
1478.1	98.000	2906.5	1.4318	0.0031000
1479.0	97.900	2908.4	1.4326	0.0030000
1480.0	97.900	2910.3	1.4335	0.0030000
1481.0	97.900	2912.2	1.4342	0.0036000
1481.9	97.900	2914.2	1.4349	0.0036000
1482.9	97.900	2916.1	1.4356	0.0036000
1483.8	97.900	2918.0	1.4362	0.0035000
1484.8	97.900	2920.0	1.4372	0.0035000
1485.8	97.900	2921.9	1.4380	0.0035000
1486.7	97.900	2923.8	1.4389	0.0034000
1487.7	97.900	2925.7	1.4398	0.0034000
1488.7	97.900	2927.7	1.4409	0.0039999
1489.6	97.800	2929.6	1.4415	0.0039999
1490.6	97.800	2931.5	1.4423	0.0039001
1491.6	97.900	2933.5	1.4434	0.0039001
1492.5	97.800	2935.4	1.4444	0.0038000
1493.5	97.800	2937.3	1.4454	0.0044000
1494.5	97.800	2939.2	1.4461	0.0044000
1495.4	97.800	2941.2	1.4474	0.0043000
1496.4	97.800	2943.1	1.4483	0.0049000
1497.4	97.800	2945.0	1.4490	0.0049000
1498.3	97.800	2947.0	1.4503	0.0048000
1499.3	97.800	2948.9	1.4512	0.0053999
1500.2	97.800	2950.8	1.4520	0.0053999
1501.2	97.700	2952.7	1.4529	0.0053000
1502.2	97.700	2954.7	1.4544	0.0053000
1503.1	97.700	2956.6	1.4555	0.0058000
1504.1	97.700	2958.5	1.4564	0.0058000
1505.1	97.700	2960.5	1.4578	0.0063000
1506.0	97.700	2962.4	1.4588	0.0063000
1507.0	97.700	2964.3	1.4598	0.0068001
1508.0	97.700	2966.3	1.4612	0.0068001
1508.9	97.700	2968.2	1.4623	0.0073000
1509.9	97.700	2970.1	1.4635	0.0073000
1510.9	97.700	2972.0	1.4646	0.0078000
1511.8	97.600	2974.0	1.4660	0.0084000
1512.8	97.600	2975.9	1.4670	0.0082999
1513.7	97.600	2977.8	1.4682	0.0089000
1514.7	97.600	2979.8	1.4696	0.0094000
1515.7	97.600	2981.7	1.4707	0.0093000
1516.6	97.600	2983.6	1.4720	0.0099000
1517.6	97.600	2985.5	1.4730	0.010400
1518.6	97.600	2987.5	1.4747	0.010300
1519.5	97.600	2989.4	1.4760	0.010900
1520.5	97.600	2991.3	1.4771	0.011400
1521.5	97.500	2993.3	1.4789	0.011900
1522.4	97.500	2995.2	1.4798	0.012500
1523.4	97.500	2997.1	1.4812	0.012400
1524.4	97.500	2999.0	1.4825	0.012900
1525.3	97.500	3001.0	1.4846	0.013400
1526.3	97.500	3002.9	1.4858	0.013900
1527.3	97.500	3004.8	1.4871	0.014400
1528.2	97.500	3006.8	1.4893	0.014900
1529.2	97.500	3008.7	1.4907	0.015400
1530.1	97.500	3010.6	1.4923	0.016500
1531.1	97.400	3012.5	1.4933	0.017100
1532.1	97.400	3014.5	1.4956	0.017500
1533.0	97.400	3016.4	1.4970	0.018000
1534.0	97.400	3018.3	1.4983	0.019200
1535.0	97.400	3020.3	1.5008	0.019600
1535.9	97.400	3022.2	1.5021	0.020800
1536.9	97.400	3024.1	1.5038	0.021300
1537.9	97.300	3026.0	1.5050	0.022400
1538.8	97.300	3028.0	1.5078	0.022800
1539.8	97.300	3029.9	1.5093	0.023900
1540.8	97.300	3031.8	1.5106	0.025100
1541.7	97.300	3033.8	1.5135	0.026100
1542.7	97.300	3035.7	1.5148	0.027200
1543.6	97.300	3037.6	1.5160	0.028400
1544.6	97.300	3039.6	1.5190	0.029400
1545.6	97.300	3041.5	1.5204	0.030500
1546.5	97.200	3043.4	1.5225	0.031600
1547.5	97.200	3045.3	1.5238	0.033400
1548.5	97.200	3047.3	1.5270	0.034300
1549.4	97.200	3049.2	1.5284	0.036100
1550.4	97.200	3051.1	1.5296	0.037300
1551.4	97.200	3053.1	1.5332	0.038800
1552.3	97.200	3055.0	1.5345	0.040600
1553.3	97.200	3056.9	1.5365	0.042400
1554.3	97.200	3058.8	1.5375	0.044200
1555.2	97.100	3060.8	1.5412	0.045800
1556.2	97.100	3062.7	1.5423	0.047600
1557.1	97.100	3064.6	1.5434	0.049400
1558.1	97.100	3066.6	1.5474	0.051700
1559.1	97.100	3068.5	1.5482	0.053500
1560.0	97.100	3070.4	1.5505	0.055300
1561.0	97.100	3072.3	1.5514	0.057800
1562.0	97.000	3074.3	1.5557	0.060000
1562.9	97.000	3076.2	1.5566	0.062600
1563.9	97.000	3078.1	1.5571	0.065200
1564.9	97.000	3080.1	1.5615	0.067400
1565.8	97.000	3082.0	1.5621	0.070100
1566.8	97.000	3083.9	1.5643	0.072500
1567.8	96.900	3085.8	1.5644	0.075900
1568.7	96.900	3087.8	1.5691	0.078200
1569.7	96.900	3089.7	1.5693	0.081600
1570.7	96.900	3091.6	1.5690	0.084400
1571.6	96.900	3093.6	1.5741	0.086600
1572.6	96.900	3095.5	1.5742	0.090100
1573.5	96.900	3097.4	1.5759	0.093400
1574.5	96.900	3099.3	1.5753	0.096300
1575.5	96.800	3101.3	1.5806	0.099300
1576.4	96.800	3103.2	1.5804	0.10290
1577.4	96.800	3105.1	1.5795	0.10660
1578.4	96.800	3107.1	1.5849	0.10960
1579.3	96.800	3109.0	1.5842	0.11330
1580.3	96.800	3110.9	1.5829	0.11720
1581.3	96.700	3112.9	1.5884	0.12020
1582.2	96.700	3114.8	1.5872	0.12410
1583.2	96.700	3116.7	1.5885	0.12770
1584.2	96.700	3118.6	1.5865	0.13170
1585.1	96.700	3120.6	1.5924	0.13480
1586.1	96.700	3122.5	1.5908	0.13880
1587.0	96.600	3124.4	1.5886	0.14290
1588.0	96.600	3126.4	1.5948	0.14610
1589.0	96.600	3128.3	1.5929	0.15020
1589.9	96.600	3130.2	1.5939	0.15480
1590.9	96.600	3132.1	1.5906	0.15910
1591.9	96.500	3134.1	1.5969	0.16240
1592.8	96.500	3136.0	1.5943	0.16670
1593.8	96.500	3137.9	1.5910	0.17110
1594.8	96.500	3139.9	1.5975	0.17440
1595.7	96.400	3141.8	1.5944	0.17890
1596.7	96.400	3143.7	1.5949	0.18300
1597.7	96.400	3145.6	1.5908	0.18760
1598.6	96.400	3147.6	1.5977	0.19100
1599.6	96.400	3149.5	1.5942	0.19560
1600.6	96.300	3151.4	1.5897	0.20040
1601.5	96.300	3153.4	1.5968	0.20380
1602.5	96.300	3155.3	1.5922	0.20870
1603.4	96.200	3157.2	1.5923	0.21210
1604.4	96.200	3159.1	1.5873	0.21710
1605.4	96.200	3161.1	1.5949	0.22060
1606.3	96.100	3163.0	1.5903	0.22560
1607.3	96.100	3164.9	1.5844	0.23070
1608.3	96.100	3166.9	1.5921	0.23340
1609.2	96.100	3168.8	1.5869	0.23860
1610.2	96.000	3170.7	1.5862	0.24320
1611.2	96.000	3172.6	1.5796	0.24760
1612.1	95.900	3174.6	1.5876	0.25140
1613.1	95.900	3176.5	1.5816	0.25570
1614.1	95.900	3178.4	1.5751	0.26020
1615.0	95.800	3180.4	1.5834	0.26400
1616.0	95.800	3182.3	1.5773	0.26850
1616.9	95.700	3184.2	1.5699	0.27420
1617.9	95.700	3186.2	1.5780	0.27710
1618.9	95.600	3188.1	1.5709	0.28180
1619.8	95.600	3190.0	1.5697	0.28580
1620.8	95.500	3191.9	1.5615	0.29060
1621.8	95.400	3193.9	1.5702	0.29360
1622.7	95.400	3195.8	1.5629	0.29840
1623.7	95.300	3197.7	1.5543	0.30340
1624.7	95.200	3199.7	1.5630	0.30640
1625.6	95.200	3201.6	1.5547	0.31030
1626.6	95.100	3203.5	1.5533	0.31460
1627.6	95.000	3205.4	1.5437	0.31980
1628.5	94.900	3207.4	1.5529	0.32180
1629.5	94.900	3209.3	1.5447	0.32690
1630.4	94.800	3211.2	1.5348	0.33220
1631.4	94.700	3213.2	1.5437	0.33430
1632.4	94.600	3215.1	1.5342	0.33850
1633.3	94.600	3217.0	1.5323	0.34180
1634.3	94.500	3218.9	1.5214	0.34730
1635.3	94.400	3220.9	1.5309	0.34830
1636.2	94.300	3222.8	1.5213	0.35370
1637.2	94.300	3224.7	1.5104	0.35700
1638.2	94.200	3226.7	1.5202	0.35910
1639.1	94.200	3228.6	1.5096	0.36360
1640.1	94.100	3230.5	1.5071	0.36600
1641.1	94.100	3232.4	1.4958	0.37050
1642.0	94.000	3234.4	1.5054	0.37270
1643.0	94.000	3236.3	1.4948	0.37600
1644.0	93.900	3238.2	1.4834	0.37940
1644.9	93.900	3240.2	1.4935	0.38170
1645.9	93.900	3242.1	1.4819	0.38510
1646.8	93.800	3244.0	1.4789	0.38760
1647.8	93.800	3245.9	1.4665	0.39110
1648.8	93.800	3247.9	1.4769	0.39220
1649.7	93.800	3249.8	1.4657	0.39560
1650.7	93.700	3251.7	1.4533	0.39910
1651.7	93.700	3253.7	1.4635	0.40020
1652.6	93.700	3255.6	1.4520	0.40250
1653.6	93.700	3257.5	1.4394	0.40600
1654.6	93.700	3259.5	1.4500	0.40590
1655.5	93.700	3261.4	1.4379	0.40940
1656.5	93.700	3263.3	1.4347	0.41080
1657.5	93.700	3265.2	1.4214	0.41440
1658.4	93.700	3267.2	1.4319	0.41430
1659.4	93.700	3269.1	1.4202	0.41650
1660.3	93.700	3271.0	1.4071	0.42020
1661.3	93.700	3273.0	1.4176	0.42010
1662.3	93.700	3274.9	1.4046	0.42250
1663.2	93.800	3276.8	1.4010	0.42390
1664.2	93.800	3278.7	1.3870	0.42630
1665.2	93.800	3280.7	1.3975	0.42620
1666.1	93.800	3282.6	1.3849	0.42730
1667.1	93.800	3284.5	1.3713	0.42970
1668.1	93.800	3286.5	1.3822	0.42830
1669.0	93.800	3288.4	1.3691	0.43060
1670.0	93.900	3290.3	1.3654	0.43070
1671.0	93.900	3292.2	1.3512	0.43320
1671.9	93.900	3294.2	1.3618	0.43180
1672.9	93.900	3296.1	1.3490	0.43280
1673.8	93.900	3298.0	1.3353	0.43390
1674.8	94.000	3300.0	1.3462	0.43250
1675.8	94.000	3301.9	1.3328	0.43360
1676.7	94.000	3303.8	1.3288	0.43370
1677.7	94.000	3305.7	1.3148	0.43340
1678.7	94.000	3307.7	1.3261	0.43200
1679.6	94.100	3309.6	1.3133	0.43300
1680.6	94.100	3311.5	1.2997	0.43270
1681.6	94.200	3313.5	1.3109	0.43130
1682.5	94.200	3315.4	1.2983	0.43090
1683.5	94.200	3317.3	1.2849	0.43180
1684.5	94.200	3319.3	1.2955	0.42930
1685.4	94.300	3321.2	1.2823	0.42890
1686.4	94.300	3323.1	1.2789	0.42760
1687.4	94.400	3325.0	1.2655	0.42720
1688.3	94.400	3327.0	1.2767	0.42460
1689.3	94.400	3328.9	1.2646	0.42410
1690.2	94.500	3330.8	1.2519	0.42360
1691.2	94.600	3332.8	1.2631	0.42110
1692.2	94.600	3334.7	1.2505	0.42050
1693.1	94.600	3336.6	1.2472	0.41920
1694.1	94.700	3338.5	1.2345	0.41740
1695.1	94.700	3340.5	1.2457	0.41620
1696.0	94.800	3342.4	1.2338	0.41430
1697.0	94.900	3344.3	1.2218	0.41370
1698.0	94.900	3346.3	1.2329	0.41130
1698.9	95.000	3348.2	1.2204	0.41070
1699.9	95.100	3350.1	1.2174	0.40810
1700.9	95.100	3352.0	1.2050	0.40740
1701.8	95.200	3354.0	1.2162	0.40380
1702.8	95.300	3355.9	1.2051	0.40300
1703.8	95.300	3357.8	1.1931	0.40230
1704.7	95.400	3359.8	1.2040	0.39880
1705.7	95.500	3361.7	1.1922	0.39810
1706.6	95.500	3363.6	1.1896	0.39550
1707.6	95.600	3365.5	1.1777	0.39470
1708.6	95.700	3367.5	1.1884	0.39120
1709.5	95.700	3369.4	1.1774	0.39040
1710.5	95.800	3371.3	1.1658	0.38840
1711.5	95.900	3373.3	1.1767	0.38500
1712.4	96.000	3375.2	1.1654	0.38410
1713.4	96.000	3377.1	1.1629	0.38160
1714.4	96.100	3379.0	1.1512	0.38070
1715.3	96.200	3381.0	1.1611	0.37740
1716.3	96.300	3382.9	1.1503	0.37530
1717.3	96.400	3384.8	1.1393	0.37320
1718.2	96.500	3386.8	1.1494	0.37000
1719.2	96.500	3388.7	1.1384	0.36780
1720.1	96.600	3390.6	1.1359	0.36530
1721.1	96.700	3392.5	1.1249	0.36310
1722.1	96.700	3394.5	1.1347	0.36000
1723.0	96.800	3396.4	1.1243	0.35780
1724.0	96.900	3398.3	1.1135	0.35560
1725.0	97.000	3400.3	1.1227	0.35140
1725.9	97.100	3402.2	1.1130	0.34790
1726.9	97.100	3404.1	1.1033	0.34570
1727.9	97.200	3406.1	1.1124	0.34280
1728.8	97.300	3408.0	1.1019	0.33930
1729.8	97.300	3409.9	1.0997	0.33560
1730.8	97.400	3411.8	1.0898	0.33330
1731.7	97.500	3413.8	1.0985	0.32940
1732.7	97.500	3415.7	1.0890	0.32590
1733.6	97.600	3417.6	1.0797	0.32240
1734.6	97.700	3419.6	1.0885	0.31860
1735.6	97.700	3421.5	1.0790	0.31510
1736.5	97.800	3423.4	1.0767	0.31150
1737.5	97.900	3425.3	1.0677	0.30690
1738.5	97.900	3427.3	1.0765	0.30320
1739.4	97.900	3429.2	1.0677	0.29970
1740.4	98.000	3431.1	1.0595	0.29510
1741.4	98.100	3433.1	1.0677	0.29160
1742.3	98.100	3435.0	1.0591	0.28700
1743.3	98.200	3436.9	1.0577	0.28240
1744.3	98.200	3438.8	1.0500	0.27890
1745.2	98.300	3440.8	1.0577	0.27450
1746.2	98.300	3442.7	1.0501	0.26990
1747.2	98.300	3444.6	1.0431	0.26530
1748.1	98.400	3446.6	1.0508	0.26100
1749.1	98.400	3448.5	1.0433	0.25650
1750.0	98.500	3450.4	1.0423	0.25110
1751.0	98.500	3452.3	1.0362	0.24660
1752.0	98.500	3454.3	1.0436	0.24250
1752.9	98.600	3456.2	1.0374	0.23710
1753.9	98.600	3458.1	1.0320	0.23260
1754.9	98.600	3460.1	1.0395	0.22770
1755.8	98.700	3462.0	1.0339	0.22330
1756.8	98.700	3463.9	1.0290	0.21800
1757.8	98.700	3465.9	1.0362	0.21430
1758.7	98.800	3467.8	1.0307	0.20900
1759.7	98.800	3469.7	1.0306	0.20400
1760.7	98.800	3471.6	1.0264	0.19880
1761.6	98.900	3473.6	1.0335	0.19430
1762.6	98.900	3475.5	1.0295	0.18920
1763.5	98.900	3477.4	1.0264	0.18420
1764.5	98.900	3479.4	1.0333	0.18090
1765.5	99.000	3481.3	1.0293	0.17590
1766.4	99.000	3483.2	1.0298	0.17120
1767.4	99.000	3485.1	1.0272	0.16550
1768.4	99.000	3487.1	1.0341	0.16240
1769.3	99.100	3489.0	1.0312	0.15760
1770.3	99.100	3490.9	1.0291	0.15290
1771.3	99.100	3492.9	1.0356	0.14900
1772.2	99.100	3494.8	1.0334	0.14440
1773.2	99.100	3496.7	1.0350	0.14010
1774.2	99.100	3498.6	1.0334	0.13650
1775.1	99.200	3500.6	1.0395	0.13280
1776.1	99.200	3502.5	1.0380	0.12840
1777.1	99.200	3504.4	1.0371	0.12490
1778.0	99.200	3506.4	1.0429	0.12130
1779.0	99.200	3508.3	1.0418	0.11710
1779.9	99.200	3510.2	1.0437	0.11400
1780.9	99.200	3512.1	1.0430	0.11060
1781.9	99.300	3514.1	1.0486	0.10720
1782.8	99.300	3516.0	1.0480	0.10390
1783.8	99.300	3517.9	1.0479	0.10070
1784.8	99.300	3519.9	1.0531	0.098200
1785.7	99.300	3521.8	1.0525	0.094900
1786.7	99.300	3523.7	1.0542	0.092000
1787.7	99.300	3525.6	1.0541	0.088900
1788.6	99.400	3527.6	1.0590	0.086500
1789.6	99.400	3529.5	1.0587	0.083400
1790.6	99.400	3531.4	1.0589	0.080400
1791.5	99.400	3533.4	1.0636	0.078000
1792.5	99.400	3535.3	1.0636	0.075000
1793.4	99.400	3537.2	1.0655	0.072300
1794.4	99.400	3539.1	1.0661	0.069500
1795.4	99.400	3541.1	1.0705	0.067900
1796.3	99.500	3543.0	1.0706	0.065000
1797.3	99.500	3544.9	1.0714	0.062300
1798.3	99.500	3546.9	1.0755	0.060700
1799.2	99.500	3548.8	1.0758	0.057900
1800.2	99.500	3550.7	1.0767	0.055200
1801.2	99.500	3552.7	1.0808	0.053000
1802.1	99.500	3554.6	1.0816	0.051000
1803.1	99.500	3556.5	1.0837	0.048600
1804.1	99.500	3558.4	1.0849	0.046700
1805.0	99.600	3560.4	1.0884	0.045200
1806.0	99.600	3562.3	1.0894	0.042600
1806.9	99.600	3564.2	1.0908	0.040800
1807.9	99.600	3566.2	1.0944	0.039300
1808.9	99.600	3568.1	1.0955	0.037500
1809.8	99.600	3570.0	1.0975	0.035800
1810.8	99.600	3571.9	1.0989	0.034100
1811.8	99.600	3573.9	1.1023	0.032600
1812.7	99.600	3575.8	1.1035	0.031500
1813.7	99.600	3577.7	1.1048	0.029700
1814.7	99.600	3579.7	1.1079	0.028300
1815.6	99.600	3581.6	1.1094	0.026600
1816.6	99.600	3583.5	1.1115	0.025600
1817.6	99.600	3585.4	1.1129	0.024600
1818.5	99.700	3587.4	1.1158	0.023100
1819.5	99.600	3589.3	1.1173	0.022100
1820.5	99.700	3591.2	1.1188	0.021000
1821.4	99.700	3593.2	1.1215	0.020200
1822.4	99.700	3595.1	1.1228	0.019100
1823.3	99.700	3597.0	1.1247	0.018200
1824.3	99.700	3598.9	1.1261	0.017200
1825.3	99.700	3600.9	1.1286	0.016300
1826.2	99.700	3602.8	1.1301	0.015300
1827.2	99.700	3604.7	1.1317	0.014300
1828.2	99.700	3606.7	1.1341	0.014000
1829.1	99.700	3608.6	1.1354	0.013000
1830.1	99.700	3610.5	1.1370	0.012000
1831.1	99.700	3612.5	1.1393	0.011700
1832.0	99.700	3614.4	1.1407	0.010800
1833.0	99.700	3616.3	1.1424	0.010400
1834.0	99.700	3618.2	1.1439	0.0094000
1834.9	99.800	3620.2	1.1460	0.0091000
1835.9	99.700	3622.1	1.1475	0.0082000
1836.8	99.800	3624.0	1.1492	0.0078000
1837.8	99.800	3626.0	1.1513	0.0075001
1838.8	99.800	3627.9	1.1528	0.0071000
1839.7	99.800	3629.8	1.1544	0.0067000
1840.7	99.800	3631.7	1.1559	0.0063000
1841.7	99.800	3633.7	1.1579	0.0060000
1842.6	99.800	3635.6	1.1594	0.0056000
1843.6	99.800	3637.5	1.1611	0.0053000
1844.6	99.800	3639.5	1.1633	0.0050000
1845.5	99.800	3641.4	1.1651	0.0052000
1846.5	99.800	3643.3	1.1668	0.0053000
1847.5	99.800	3645.2	1.1685	0.0055000
1848.4	99.800	3647.2	1.1705	0.0063000
1849.4	99.800	3649.1	1.1719	0.0070000
1850.3	99.800	3651.0	1.1731	0.0077000
1851.3	99.800	3653.0	1.1747	0.0089999
1852.3	99.800	3654.9	1.1753	0.010100
1853.2	99.800	3656.8	1.1759	0.011300
1854.2	99.800	3658.7	1.1759	0.012400
1855.2	99.800	3660.7	1.1762	0.013500
1856.1	99.800	3662.6	1.1755	0.014000
1857.1	99.800	3664.5	1.1748	0.013900
1858.1	99.800	3666.5	1.1746	0.014400
1859.0	99.800	3668.4	1.1736	0.013200
1860.0	99.800	3670.3	1.1735	0.012100
1861.0	99.800	3672.2	1.1733	0.010900
1861.9	99.800	3674.2	1.1738	0.0099000
1862.9	99.900	3676.1	1.1740	0.0082999
1863.9	99.900	3678.0	1.1748	0.0067000
1864.8	99.900	3680.0	1.1762	0.0058000
1865.8	99.900	3681.9	1.1772	0.0048000
1866.7	99.900	3683.8	1.1784	0.0044000
1867.7	99.800	3685.7	1.1794	0.0039001
1868.7	99.900	3687.7	1.1806	0.0035000
1869.6	99.900	3689.6	1.1813	0.0036000
1870.6	99.900	3691.5	1.1819	0.0031000
1871.6	99.900	3693.5	1.1827	0.0027000
1872.5	99.900	3695.4	1.1832	0.0022000
1873.5	99.900	3697.3	1.1840	0.0012000
1874.5	99.900	3699.3	1.1849	0.00080001
1875.4	99.900	3701.2	1.1857	0.0000
1876.4	99.900	3703.1	1.1869	0.0000
1877.4	99.900	3705.0	1.1882	0.0000
1878.3	99.900	3707.0	1.1894	0.0000
1879.3	99.900	3708.9	1.1906	0.0000
1880.2	99.900	3710.8	1.1917	0.0000
1881.2	99.900	3712.8	1.1927	0.0000
1882.2	99.900	3714.7	1.1939	0.0000
1883.1	99.900	3716.6	1.1951	0.0000
1884.1	99.900	3718.5	1.1961	0.0000
1885.1	99.900	3720.5	1.1968	0.0000
1886.0	99.900	3722.4	1.1978	0.0000
1887.0	99.900	3724.3	1.1988	0.0000
1888.0	99.900	3726.3	1.1996	0.0000
1888.9	99.900	3728.2	1.2003	0.0000
1889.9	99.900	3730.1	1.2012	0.0000
1890.9	99.900	3732.0	1.2022	0.0000
1891.8	99.900	3734.0	1.2029	0.0000
1892.8	99.900	3735.9	1.2037	0.0000
1893.8	99.900	3737.8	1.2043	0.0000
1894.7	99.900	3739.8	1.2050	0.0000
1895.7	99.900	3741.7	1.2059	0.0000
1896.6	99.900	3743.6	1.2067	0.0000
1897.6	99.900	3745.5	1.2075	0.0000
1898.6	99.900	3747.5	1.2080	0.0000
1899.5	99.900	3749.4	1.2087	0.0000
1900.5	99.900	3751.3	1.2093	0.0000
1901.5	99.900	3753.3	1.2100	0.0000
1902.4	99.900	3755.2	1.2107	0.0000
1903.4	99.900	3757.1	1.2113	0.0000
1904.4	99.900	3759.1	1.2119	0.0000
1905.3	99.900	3761.0	1.2126	0.0000
1906.3	99.900	3762.9	1.2132	0.0000
1907.3	99.900	3764.8	1.2138	0.0000
1908.2	99.900	3766.8	1.2142	0.0000
1909.2	99.900	3768.7	1.2150	0.0000
1910.1	99.900	3770.6	1.2157	0.0000
1911.1	99.900	3772.6	1.2159	0.0000
1912.1	99.900	3774.5	1.2165	0.0000
1913.0	99.900	3776.4	1.2171	0.0000
1914.0	99.900	3778.3	1.2178	0.0000
1915.0	99.900	3780.3	1.2182	0.0000
1915.9	99.900	3782.2	1.2188	0.0000
1916.9	99.900	3784.1	1.2192	0.0000
1917.9	99.900	3786.1	1.2197	0.0000
1918.8	99.900	3788.0	1.2205	0.0000
1919.8	99.900	3789.9	1.2209	0.0000
1920.8	99.900	3791.8	1.2214	0.0000
1921.7	99.900	3793.8	1.2219	0.0000
1922.7	99.900	3795.7	1.2225	0.0000
1923.7	99.900	3797.6	1.2231	0.0000
1924.6	99.900	3799.6	1.2235	0.0000
1925.6	99.900	3801.5	1.2240	0.0000
1926.5	99.900	3803.4	1.2244	0.0000
1927.5	99.900	3805.3	1.2249	0.0000
1928.5	99.900	3807.3	1.2252	0.0000
1929.4	99.900	3809.2	1.2258	0.0000
1930.4	99.900	3811.1	1.2263	0.0000
1931.4	100.00	3813.1	1.2267	0.0000
1932.3	99.900	3815.0	1.2272	0.0000
1933.3	99.900	3816.9	1.2275	0.0000
1934.3	99.900	3818.8	1.2281	0.0000
1935.2	99.900	3820.8	1.2285	0.0000
1936.2	99.900	3822.7	1.2290	0.0000
1937.2	99.900	3824.6	1.2295	0.0000
1938.1	99.900	3826.6	1.2298	0.0000
1939.1	99.900	3828.5	1.2303	0.0000
1940.0	99.900	3830.4	1.2308	0.0000
1941.0	99.900	3832.4	1.2311	0.0000
1942.0	99.900	3834.3	1.2315	0.0000
1942.9	99.900	3836.2	1.2319	0.0000
1943.9	99.900	3838.1	1.2324	0.0000
1944.9	99.900	3840.1	1.2326	0.0000
1945.8	99.900	3842.0	1.2330	0.0000
1946.8	99.900	3843.9	1.2334	0.0000
1947.8	99.900	3845.9	1.2335	0.0000
1948.7	99.900	3847.8	1.2340	0.0000
1949.7	99.900	3849.7	1.2345	0.0000
1950.7	99.900	3851.6	1.2351	0.0000
1951.6	99.900	3853.6	1.2355	0.0000
1952.6	99.900	3855.5	1.2358	0.0000
1953.5	99.900	3857.4	1.2361	0.0000
1954.5	99.900	3859.4	1.2364	0.0000
1955.5	99.900	3861.3	1.2369	0.0000
1956.4	100.00	3863.2	1.2373	0.0000
1957.4	99.900	3865.1	1.2377	0.0000
1958.4	99.900	3867.1	1.2380	0.0000
1959.3	99.900	3869.0	1.2384	0.0000
1960.3	99.900	3870.9	1.2388	0.0000
1961.3	99.900	3872.9	1.2390	0.0000
1962.2	99.900	3874.8	1.2394	0.0000
1963.2	99.900	3876.7	1.2398	0.0000
1964.2	99.900	3878.6	1.2401	0.0000
1965.1	99.900	3880.6	1.2404	0.0000
1966.1	99.900	3882.5	1.2408	0.0000
1967.1	99.900	3884.4	1.2411	0.0000
1968.0	99.900	3886.4	1.2414	0.0000
1969.0	99.900	3888.3	1.2417	0.0000
1969.9	99.900	3890.2	1.2420	0.0000
1970.9	99.900	3892.1	1.2424	0.0000
1971.9	99.900	3894.1	1.2426	0.0000
1972.8	99.900	3896.0	1.2430	0.0000
1973.8	99.900	3897.9	1.2433	0.0000
1974.8	99.900	3899.9	1.2435	0.0000
1975.7	99.900	3901.8	1.2439	0.0000
1976.7	99.900	3903.7	1.2442	0.0000
1977.7	99.900	3905.7	1.2444	0.0000
1978.6	99.900	3907.6	1.2447	0.0000
1979.6	99.900	3909.5	1.2449	0.0000
1980.6	99.900	3911.4	1.2454	0.0000
1981.5	99.900	3913.4	1.2457	0.0000
1982.5	99.900	3915.3	1.2458	0.0000
1983.4	99.900	3917.2	1.2462	0.0000
1984.4	99.900	3919.2	1.2467	0.0000
1985.4	99.900	3921.1	1.2470	0.0000
1986.3	99.900	3923.0	1.2472	0.0000
1987.3	99.900	3924.9	1.2474	0.0000
1988.3	99.900	3926.9	1.2475	0.0000
1989.2	99.900	3928.8	1.2479	0.0000
1990.2	99.900	3930.7	1.2483	0.0000
1991.2	99.900	3932.7	1.2485	0.0000
1992.1	99.900	3934.6	1.2489	0.0000
1993.1	99.900	3936.5	1.2492	0.0000
1994.1	99.900	3938.4	1.2496	0.0000
1995.0	99.900	3940.4	1.2496	0.0000
1996.0	99.900	3942.3	1.2499	0.0000
1997.0	99.900	3944.2	1.2501	0.0000
1997.9	99.800	3946.2	1.2502	0.0000
1998.9	99.900	3948.1	1.2506	0.0000
1999.8	99.900	3950.0	1.2510	0.0000
2000.8	99.800	3951.9	1.2511	0.0000
2001.8	99.800	3953.9	1.2512	0.0000
2002.7	99.800	3955.8	1.2515	0.0000
2003.7	99.800	3957.7	1.2520	0.0000
2004.7	99.800	3959.7	1.2524	0.0000
2005.6	99.800	3961.6	1.2526	0.0000
2006.6	99.800	3963.5	1.2529	0.0000
2007.6	99.800	3965.4	1.2533	0.0000
2008.5	99.800	3967.4	1.2533	0.0000
2009.5	99.800	3969.3	1.2536	0.0000
2010.5	99.800	3971.2	1.2538	0.0000
2011.4	99.800	3973.2	1.2540	0.0000
2012.4	99.800	3975.1	1.2542	0.0000
2013.3	99.800	3977.0	1.2545	0.0000
2014.3	99.800	3979.0	1.2546	0.0000
2015.3	99.800	3980.9	1.2550	0.0000
2016.2	99.800	3982.8	1.2553	0.0000
2017.2	99.800	3984.7	1.2557	0.0000
2018.2	99.800	3986.7	1.2559	0.0000
2019.1	99.800	3988.6	1.2563	0.0000
2020.1	99.800	3990.5	1.2568	0.0000
2021.1	99.800	3992.5	1.2570	0.0000
2022.0	99.800	3994.4	1.2574	0.0000
2023.0	99.700	3996.3	1.2579	0.0000
2024.0	99.700	3998.2	1.2583	0.0000
2024.9	99.700
2025.9	99.700
2026.8	99.700
2027.8	99.700
2028.8	99.700
2029.7	99.700
2030.7	99.700
2031.7	99.700
2032.6	99.700
2033.6	99.700
2034.6	99.700
2035.5	99.700
2036.5	99.700
2037.5	99.700
2038.4	99.700
2039.4	99.600
2040.4	99.600
2041.3	99.600
2042.3	99.600
2043.2	99.600
2044.2	99.600
2045.2	99.600
2046.1	99.600
2047.1	99.600
2048.1	99.600
2049.0	99.600
2050.0	99.600
2051.0	99.600
2051.9	99.600
2052.9	99.600
2053.9	99.500
2054.8	99.500
2055.8	99.500
2056.7	99.500
2057.7	99.500
2058.7	99.500
2059.6	99.500
2060.6	99.500
2061.6	99.500
2062.5	99.500
2063.5	99.500
2064.5	99.500
2065.4	99.500
2066.4	99.400
2067.4	99.400
2068.3	99.400
2069.3	99.400
2070.3	99.400
2071.2	99.400
2072.2	99.400
2073.1	99.400
2074.1	99.400
2075.1	99.400
2076.0	99.400
2077.0	99.400
2078.0	99.400
2078.9	99.400
2079.9	99.300
2080.9	99.300
2081.8	99.300
2082.8	99.300
2083.8	99.300
2084.7	99.300
2085.7	99.300
2086.6	99.300
2087.6	99.300
2088.6	99.300
2089.5	99.200
2090.5	99.200
2091.5	99.200
2092.4	99.300
2093.4	99.200
2094.4	99.200
2095.3	99.200
2096.3	99.200
2097.3	99.200
2098.2	99.200
2099.2	99.200
2100.1	99.200
2101.1	99.100
2102.1	99.100
2103.0	99.100
2104.0	99.100
2105.0	99.100
2105.9	99.100
2106.9	99.100
2107.9	99.100
2108.8	99.100
2109.8	99.100
2110.8	99.100
2111.7	99.100
2112.7	99.100
2113.7	99.000
2114.6	99.000
2115.6	99.000
2116.5	99.000
2117.5	99.000
2118.5	99.000
2119.4	99.000
2120.4	99.000
2121.4	98.900
2122.3	98.900
2123.3	98.900
2124.3	98.900
2125.2	98.900
2126.2	98.900
2127.2	98.900
2128.1	98.900
2129.1	98.900
2130.0	98.900
2131.0	98.900
2132.0	98.800
2132.9	98.800
2133.9	98.800
2134.9	98.800
2135.8	98.800
2136.8	98.800
2137.8	98.800
2138.7	98.800
2139.7	98.700
2140.7	98.700
2141.6	98.700
2142.6	98.700
2143.6	98.700
2144.5	98.700
2145.5	98.700
2146.4	98.700
2147.4	98.700
2148.4	98.600
2149.3	98.600
2150.3	98.600
2151.3	98.600
2152.2	98.600
2153.2	98.600
2154.2	98.600
2155.1	98.600
2156.1	98.600
2157.1	98.600
2158.0	98.600
2159.0	98.600
2159.9	98.500
2160.9	98.500
2161.9	98.500
2162.8	98.500
2163.8	98.500
2164.8	98.500
2165.7	98.500
2166.7	98.500
2167.7	98.500
2168.6	98.500
2169.6	98.500
2170.6	98.400
2171.5	98.500
2172.5	98.400
2173.5	98.400
2174.4	98.400
2175.4	98.400
2176.3	98.400
2177.3	98.400
2178.3	98.400
2179.2	98.400
2180.2	98.400
2181.2	98.400
2182.1	98.400
2183.1	98.400
2184.1	98.300
2185.0	98.400
2186.0	98.300
2187.0	98.300
2187.9	98.300
2188.9	98.300
2189.8	98.300
2190.8	98.300
2191.8	98.300
2192.7	98.300
2193.7	98.300
2194.7	98.300
2195.6	98.300
2196.6	98.300
2197.6	98.300
2198.5	98.300
2199.5	98.300
2200.5	98.300
2201.4	98.300
2202.4	98.300
2203.3	98.300
2204.3	98.300
2205.3	98.300
2206.2	98.300
2207.2	98.300
2208.2	98.300
2209.1	98.300
2210.1	98.300
2211.1	98.300
2212.0	98.300
2213.0	98.300
2214.0	98.300
2214.9	98.300
2215.9	98.300
2216.9	98.300
2217.8	98.300
2218.8	98.300
2219.7	98.300
2220.7	98.300
2221.7	98.300
2222.6	98.300
2223.6	98.300
2224.6	98.300
2225.5	98.400
2226.5	98.400
2227.5	98.300
2228.4	98.400
2229.4	98.400
2230.4	98.400
2231.3	98.400
2232.3	98.400
2233.2	98.400
2234.2	98.400
2235.2	98.400
2236.1	98.400
2237.1	98.400
2238.1	98.400
2239.0	98.400
2240.0	98.400
2241.0	98.400
2241.9	98.400
2242.9	98.400
2243.9	98.400
2244.8	98.500
2245.8	98.500
2246.7	98.500
2247.7	98.500
2248.7	98.500
2249.6	98.500
2250.6	98.500
2251.6	98.500
2252.5	98.500
2253.5	98.500
2254.5	98.500
2255.4	98.500
2256.4	98.500
2257.4	98.600
2258.3	98.600
2259.3	98.500
2260.3	98.600
2261.2	98.600
2262.2	98.600
2263.1	98.600
2264.1	98.600
2265.1	98.600
2266.0	98.600
2267.0	98.600
2268.0	98.600
2268.9	98.600
2269.9	98.600
2270.9	98.600
2271.8	98.700
2272.8	98.600
2273.8	98.700
2274.7	98.700
2275.7	98.700
2276.6	98.700
2277.6	98.700
2278.6	98.700
2279.5	98.700
2280.5	98.700
2281.5	98.700
2282.4	98.700
2283.4	98.700
2284.4	98.700
2285.3	98.700
2286.3	98.700
2287.3	98.700
2288.2	98.800
2289.2	98.800
2290.2	98.800
2291.1	98.800
2292.1	98.800
2293.0	98.800
2294.0	98.800
2295.0	98.800
2295.9	98.800
2296.9	98.800
2297.9	98.800
2298.8	98.800
2299.8	98.800
2300.8	98.800
2301.7	98.800
2302.7	98.800
2303.7	98.800
2304.6	98.800
2305.6	98.900
2306.5	98.900
2307.5	98.900
2308.5	98.900
2309.4	98.900
2310.4	98.900
2311.4	98.900
2312.3	98.900
2313.3	98.900
2314.3	98.900
2315.2	98.900
2316.2	98.900
2317.2	98.900
2318.1	98.900
2319.1	98.900
2320.1	98.900
2321.0	98.900
2322.0	98.900
2322.9	98.900
2323.9	98.900
2324.9	98.900
2325.8	99.000
2326.8	99.000
2327.8	99.000
2328.7	99.000
2329.7	99.000
2330.7	99.000
2331.6	99.000
2332.6	99.000
2333.6	99.000
2334.5	99.000
2335.5	99.000
2336.4	99.000
2337.4	99.000
2338.4	99.000
2339.3	99.000
2340.3	99.000
2341.3	99.000
2342.2	99.000
2343.2	99.000
2344.2	99.000
2345.1	99.000
2346.1	99.100
2347.1	99.100
2348.0	99.100
2349.0	99.100
2349.9	99.100
2350.9	99.100
2351.9	99.100
2352.8	99.100
2353.8	99.100
2354.8	99.100
2355.7	99.100
2356.7	99.100
2357.7	99.100
2358.6	99.100
2359.6	99.100
2360.6	99.100
2361.5	99.100
2362.5	99.100
2363.5	99.100
2364.4	99.100
2365.4	99.100
2366.3	99.200
2367.3	99.200
2368.3	99.200
2369.2	99.200
2370.2	99.200
2371.2	99.200
2372.1	99.200
2373.1	99.200
2374.1	99.200
2375.0	99.200
2376.0	99.200
2377.0	99.200
2377.9	99.200
2378.9	99.200
2379.8	99.200
2380.8	99.200
2381.8	99.200
2382.7	99.200
2383.7	99.200
2384.7	99.300
2385.6	99.300
2386.6	99.300
2387.6	99.300
2388.5	99.300
2389.5	99.300
2390.5	99.300
2391.4	99.300
2392.4	99.300
2393.4	99.300
2394.3	99.300
2395.3	99.300
2396.2	99.300
2397.2	99.300
2398.2	99.300
2399.1	99.300
2400.1	99.300
2401.1	99.300
2402.0	99.300
2403.0	99.300
2404.0	99.300
2404.9	99.300
2405.9	99.300
2406.9	99.400
2407.8	99.400
2408.8	99.400
2409.7	99.400
2410.7	99.400
2411.7	99.400
2412.6	99.400
2413.6	99.400
2414.6	99.400
2415.5	99.400
2416.5	99.400
2417.5	99.400
2418.4	99.400
2419.4	99.400
2420.4	99.400
2421.3	99.400
2422.3	99.400
2423.2	99.400
2424.2	99.400
2425.2	99.400
2426.1	99.400
2427.1	99.400
2428.1	99.400
2429.0	99.400
2430.0	99.400
2431.0	99.400
2431.9	99.400
2432.9	99.400
2433.9	99.400
2434.8	99.400
2435.8	99.400
2436.8	99.500
2437.7	99.500
2438.7	99.500
2439.6	99.400
2440.6	99.500
2441.6	99.500
2442.5	99.400
2443.5	99.500
2444.5	99.500
2445.4	99.500
2446.4	99.400
2447.4	99.500
2448.3	99.500
2449.3	99.500
2450.3	99.500
2451.2	99.500
2452.2	99.500
2453.1	99.500
2454.1	99.500
2455.1	99.500
2456.0	99.500
2457.0	99.500
2458.0	99.500
2458.9	99.500
2459.9	99.500
2460.9	99.500
2461.8	99.500
2462.8	99.500
2463.8	99.500
2464.7	99.600
2465.7	99.500
2466.7	99.500
2467.6	99.500
2468.6	99.500
2469.5	99.600
2470.5	99.600
2471.5	99.500
2472.4	99.500
2473.4	99.600
2474.4	99.600
2475.3	99.600
2476.3	99.600
2477.3	99.600
2478.2	99.600
2479.2	99.600
2480.2	99.600
2481.1	99.600
2482.1	99.600
2483.0	99.600
2484.0	99.600
2485.0	99.600
2485.9	99.600
2486.9	99.600
2487.9	99.600
2488.8	99.600
2489.8	99.600
2490.8	99.600
2491.7	99.600
2492.7	99.600
2493.7	99.600
2494.6	99.600
2495.6	99.600
2496.6	99.600
2497.5	99.600
2498.5	99.600
2499.4	99.600
2500.4	99.700
2501.4	99.600
2502.3	99.700
2503.3	99.600
2504.3	99.700
2505.2	99.700
2506.2	99.600
2507.2	99.700
2508.1	99.700
2509.1	99.600
2510.1	99.700
2511.0	99.700
2512.0	99.700
2512.9	99.700
2513.9	99.700
2514.9	99.700
2515.8	99.700
2516.8	99.700
2517.8	99.700
2518.7	99.700
2519.7	99.700
2520.7	99.700
2521.6	99.700
2522.6	99.700
2523.6	99.700
2524.5	99.700
2525.5	99.700
2526.4	99.700
2527.4	99.700
2528.4	99.700
2529.3	99.700
2530.3	99.700
2531.3	99.700
2532.2	99.700
2533.2	99.700
2534.2	99.700
2535.1	99.700
2536.1	99.700
2537.1	99.700
2538.0	99.700
2539.0	99.700
2540.0	99.800
2540.9	99.700
2541.9	99.700
2542.8	99.700
2543.8	99.700
2544.8	99.800
2545.7	99.700
2546.7	99.700
2547.7	99.800
2548.6	99.800
2549.6	99.800
2550.6	99.800
2551.5	99.800
2552.5	99.800
2553.5	99.800
2554.4	99.800
2555.4	99.800
2556.3	99.800
2557.3	99.800
2558.3	99.800
2559.2	99.800
2560.2	99.800
2561.2	99.800
2562.1	99.800
2563.1	99.800
2564.1	99.800
2565.0	99.800
2566.0	99.800
2567.0	99.800
2567.9	99.800
2568.9	99.800
2569.9	99.800
2570.8	99.800
2571.8	99.800
2572.7	99.800
2573.7	99.800
2574.7	99.800
2575.6	99.800
2576.6	99.800
2577.6	99.800
2578.5	99.800
2579.5	99.800
2580.5	99.800
2581.4	99.800
2582.4	99.800
2583.4	99.800
2584.3	99.800
2585.3	99.800
2586.2	99.800
2587.2	99.800
2588.2	99.800
2589.1	99.800
2590.1	99.900
2591.1	99.900
2592.0	99.800
2593.0	99.800
2594.0	99.900
2594.9	99.800
2595.9	99.800
2596.9	99.900
2597.8	99.800
2598.8	99.900
2599.8	99.900
2600.7	99.900
2601.7	99.900
2602.6	99.900
2603.6	99.900
2604.6	99.800
2605.5	99.900
2606.5	99.900
2607.5	99.900
2608.4	99.900
2609.4	99.900
2610.4	99.900
2611.3	99.900
2612.3	99.900
2613.3	99.900
2614.2	99.900
2615.2	99.900
2616.1	99.900
2617.1	99.900
2618.1	99.900
2619.0	99.900
2620.0	99.900
2621.0	99.900
2621.9	99.900
2622.9	99.900
2623.9	99.900
2624.8	99.900
2625.8	99.900
2626.8	99.900
2627.7	99.900
2628.7	99.900
2629.6	99.900
2630.6	99.900
2631.6	99.900
2632.5	99.900
2633.5	99.900
2634.5	99.900
2635.4	99.900
2636.4	99.900
2637.4	99.900
2638.3	99.900
2639.3	99.900
2640.3	99.900
2641.2	99.900
2642.2	99.900
2643.2	99.900
2644.1	99.900
2645.1	99.900
2646.0	99.900
2647.0	99.900
2648.0	99.900
2648.9	99.900
2649.9	99.900
2650.9	99.900
2651.8	99.900
2652.8	99.900
2653.8	99.900
2654.7	99.900
2655.7	99.900
2656.7	99.900
2657.6	99.900
2658.6	99.900
2659.5	99.900
2660.5	100.00
2661.5	99.900
2662.4	99.900
2663.4	99.900
2664.4	100.00
2665.3	99.900
2666.3	99.900
2667.3	99.900
2668.2	100.00
2669.2	99.900
2670.2	99.900
2671.1	99.900
2672.1	99.900
2673.0	99.900
2674.0	99.900
2675.0	99.900
2675.9	100.00
2676.9	100.00
2677.9	100.00
2678.8	100.00
2679.8	99.900
2680.8	99.900
2681.7	100.00
2682.7	100.00
2683.7	99.900
2684.6	99.900
2685.6	100.00
2686.6	99.900
2687.5	100.00
2688.5	99.900
2689.4	99.900
2690.4	99.900
2691.4	99.900
2692.3	100.00
2693.3	99.900
2694.3	100.00
2695.2	100.00
2696.2	99.900
2697.2	99.900
2698.1	99.900
2699.1	100.00
2700.1	99.900
2701.0	100.00
2702.0	100.00
2702.9	99.900
2703.9	100.00
2704.9	99.900
2705.8	100.00
2706.8	99.900
2707.8	100.00
2708.7	100.00
2709.7	100.00
2710.7	100.00
2711.6	100.00
2712.6	100.00
2713.6	100.00
2714.5	99.900
2715.5	99.900
2716.5	99.900
2717.4	100.00
2718.4	100.00
2719.3	100.00
2720.3	99.900
2721.3	99.900
2722.2	99.900
2723.2	99.900
2724.2	100.00
2725.1	99.900
2726.1	99.900
2727.1	99.900
2728.0	100.00
2729.0	99.900
2730.0	99.900
2730.9	99.900
2731.9	100.00
2732.8	99.900
2733.8	99.900
2734.8	99.900
2735.7	99.900
2736.7	99.900
2737.7	99.900
2738.6	99.900
2739.6	99.900
2740.6	99.900
2741.5	99.900
2742.5	99.900
2743.5	99.900
2744.4	99.900
2745.4	99.900
2746.4	99.900
2747.3	99.900
2748.3	99.900
2749.2	99.900
2750.2	99.900
2751.2	99.900
2752.1	99.900
2753.1	99.900
2754.1	99.900
2755.0	99.900
2756.0	99.900
2757.0	99.900
2757.9	99.900
2758.9	99.900
2759.9	99.900
2760.8	99.900
2761.8	99.900
2762.7	99.900
2763.7	99.900
2764.7	99.900
2765.6	99.900
2766.6	99.900
2767.6	99.900
2768.5	99.900
2769.5	99.900
2770.5	99.900
2771.4	99.900
2772.4	99.900
2773.4	99.900
2774.3	99.900
2775.3	99.900
2776.2	99.900
2777.2	99.900
2778.2	99.900
2779.1	99.900
2780.1	99.900
2781.1	99.900
2782.0	99.900
2783.0	99.900
2784.0	99.900
2784.9	99.900
2785.9	99.900
2786.9	99.900
2787.8	99.900
2788.8	99.900
2789.8	99.800
2790.7	99.800
2791.7	99.800
2792.6	99.800
2793.6	99.800
2794.6	99.800
2795.5	99.800
2796.5	99.800
2797.5	99.800
2798.4	99.900
2799.4	99.800
2800.4	99.800
2801.3	99.800
2802.3	99.800
2803.3	99.800
2804.2	99.800
2805.2	99.800
2806.1	99.800
2807.1	99.800
2808.1	99.800
2809.0	99.800
2810.0	99.800
2811.0	99.800
2811.9	99.800
2812.9	99.800
2813.9	99.800
2814.8	99.800
2815.8	99.800
2816.8	99.800
2817.7	99.800
2818.7	99.800
2819.6	99.800
2820.6	99.800
2821.6	99.800
2822.5	99.800
2823.5	99.800
2824.5	99.800
2825.4	99.800
2826.4	99.800
2827.4	99.800
2828.3	99.800
2829.3	99.700
2830.3	99.700
2831.2	99.700
2832.2	99.700
2833.2	99.700
2834.1	99.700
2835.1	99.700
2836.0	99.700
2837.0	99.800
2838.0	99.700
2838.9	99.700
2839.9	99.700
2840.9	99.700
2841.8	99.700
2842.8	99.700
2843.8	99.700
2844.7	99.700
2845.7	99.700
2846.7	99.700
2847.6	99.700
2848.6	99.700
2849.5	99.700
2850.5	99.700
2851.5	99.700
2852.4	99.700
2853.4	99.700
2854.4	99.700
2855.3	99.700
2856.3	99.700
2857.3	99.700
2858.2	99.700
2859.2	99.700
2860.2	99.700
2861.1	99.700
2862.1	99.700
2863.1	99.700
2864.0	99.700
2865.0	99.700
2865.9	99.700
2866.9	99.700
2867.9	99.700
2868.8	99.700
2869.8	99.700
2870.8	99.700
2871.7	99.700
2872.7	99.700
2873.7	99.700
2874.6	99.700
2875.6	99.700
2876.6	99.700
2877.5	99.700
2878.5	99.700
2879.4	99.700
2880.4	99.700
2881.4	99.700
2882.3	99.700
2883.3	99.700
2884.3	99.700
2885.2	99.700
2886.2	99.700
2887.2	99.700
2888.1	99.700
2889.1	99.700
2890.1	99.600
2891.0	99.700
2892.0	99.700
2892.9	99.700
2893.9	99.700
2894.9	99.600
2895.8	99.600
2896.8	99.600
2897.8	99.600
2898.7	99.600
2899.7	99.600
2900.7	99.600
2901.6	99.600
2902.6	99.600
2903.6	99.600
2904.5	99.600
2905.5	99.600
2906.5	99.600
2907.4	99.600
2908.4	99.600
2909.3	99.500
2910.3	99.600
2911.3	99.600
2912.2	99.500
2913.2	99.500
2914.2	99.500
2915.1	99.500
2916.1	99.500
2917.1	99.500
2918.0	99.500
2919.0	99.500
2920.0	99.500
2920.9	99.500
2921.9	99.500
2922.8	99.500
2923.8	99.500
2924.8	99.500
2925.7	99.500
2926.7	99.500
2927.7	99.400
2928.6	99.400
2929.6	99.400
2930.6	99.400
2931.5	99.400
2932.5	99.400
2933.5	99.400
2934.4	99.400
2935.4	99.400
2936.4	99.300
2937.3	99.300
2938.3	99.300
2939.2	99.300
2940.2	99.300
2941.2	99.300
2942.1	99.200
2943.1	99.200
2944.1	99.200
2945.0	99.200
2946.0	99.200
2947.0	99.200
2947.9	99.200
2948.9	99.100
2949.9	99.100
2950.8	99.100
2951.8	99.100
2952.7	99.100
2953.7	99.000
2954.7	99.100
2955.6	99.000
2956.6	99.000
2957.6	99.000
2958.5	99.000
2959.5	98.900
2960.5	98.900
2961.4	98.900
2962.4	98.900
2963.4	98.800
2964.3	98.800
2965.3	98.800
2966.3	98.800
2967.2	98.700
2968.2	98.700
2969.1	98.700
2970.1	98.700
2971.1	98.600
2972.0	98.600
2973.0	98.600
2974.0	98.500
2974.9	98.500
2975.9	98.500
2976.9	98.500
2977.8	98.400
2978.8	98.400
2979.8	98.300
2980.7	98.300
2981.7	98.300
2982.6	98.300
2983.6	98.200
2984.6	98.200
2985.5	98.100
2986.5	98.100
2987.5	98.100
2988.4	98.000
2989.4	98.000
2990.4	98.000
2991.3	97.900
2992.3	97.900
2993.3	97.800
2994.2	97.800
2995.2	97.700
2996.1	97.700
2997.1	97.700
2998.1	97.600
2999.0	97.600
3000.0	97.500
3001.0	97.500
3001.9	97.400
3002.9	97.400
3003.9	97.300
3004.8	97.300
3005.8	97.200
3006.8	97.200
3007.7	97.100
3008.7	97.100
3009.7	97.000
3010.6	96.900
3011.6	96.900
3012.5	96.800
3013.5	96.800
3014.5	96.700
3015.4	96.600
3016.4	96.600
3017.4	96.500
3018.3	96.400
3019.3	96.400
3020.3	96.300
3021.2	96.200
3022.2	96.100
3023.2	96.100
3024.1	96.000
3025.1	95.900
3026.0	95.800
3027.0	95.700
3028.0	95.700
3028.9	95.600
3029.9	95.500
3030.9	95.400
3031.8	95.300
3032.8	95.200
3033.8	95.100
3034.7	95.000
3035.7	94.900
3036.7	94.800
3037.6	94.700
3038.6	94.600
3039.6	94.500
3040.5	94.400
3041.5	94.300
3042.4	94.200
3043.4	94.100
3044.4	94.000
3045.3	93.800
3046.3	93.700
3047.3	93.600
3048.2	93.500
3049.2	93.300
3050.2	93.200
3051.1	93.100
3052.1	93.000
3053.1	92.800
3054.0	92.700
3055.0	92.500
3055.9	92.400
3056.9	92.200
3057.9	92.100
3058.8	91.900
3059.8	91.800
3060.8	91.600
3061.7	91.500
3062.7	91.300
3063.7	91.100
3064.6	91.000
3065.6	90.800
3066.6	90.600
3067.5	90.500
3068.5	90.300
3069.4	90.100
3070.4	90.000
3071.4	89.700
3072.3	89.600
3073.3	89.400
3074.3	89.200
3075.2	89.000
3076.2	88.800
3077.2	88.600
3078.1	88.400
3079.1	88.200
3080.1	88.000
3081.0	87.800
3082.0	87.600
3083.0	87.400
3083.9	87.200
3084.9	87.000
3085.8	86.700
3086.8	86.500
3087.8	86.300
3088.7	86.100
3089.7	85.800
3090.7	85.600
3091.6	85.400
3092.6	85.200
3093.6	85.000
3094.5	84.700
3095.5	84.500
3096.5	84.200
3097.4	84.000
3098.4	83.800
3099.3	83.600
3100.3	83.300
3101.3	83.100
3102.2	82.800
3103.2	82.600
3104.2	82.300
3105.1	82.100
3106.1	81.800
3107.1	81.600
3108.0	81.400
3109.0	81.100
3110.0	80.800
3110.9	80.600
3111.9	80.400
3112.9	80.100
3113.8	79.800
3114.8	79.600
3115.7	79.300
3116.7	79.100
3117.7	78.800
3118.6	78.600
3119.6	78.300
3120.6	78.100
3121.5	77.800
3122.5	77.600
3123.5	77.300
3124.4	77.100
3125.4	76.800
3126.4	76.600
3127.3	76.300
3128.3	76.100
3129.2	75.800
3130.2	75.500
3131.2	75.300
3132.1	75.000
3133.1	74.800
3134.1	74.500
3135.0	74.300
3136.0	74.000
3137.0	73.800
3137.9	73.500
3138.9	73.300
3139.9	73.000
3140.8	72.800
3141.8	72.500
3142.7	72.200
3143.7	72.000
3144.7	71.800
3145.6	71.500
3146.6	71.300
3147.6	71.000
3148.5	70.800
3149.5	70.500
3150.5	70.300
3151.4	70.000
3152.4	69.800
3153.4	69.500
3154.3	69.300
3155.3	69.000
3156.3	68.800
3157.2	68.600
3158.2	68.300
3159.1	68.100
3160.1	67.800
3161.1	67.600
3162.0	67.400
3163.0	67.100
3164.0	66.900
3164.9	66.600
3165.9	66.400
3166.9	66.200
3167.8	66.000
3168.8	65.700
3169.8	65.500
3170.7	65.200
3171.7	65.000
3172.6	64.800
3173.6	64.600
3174.6	64.300
3175.5	64.100
3176.5	63.900
3177.5	63.700
3178.4	63.500
3179.4	63.200
3180.4	63.000
3181.3	62.800
3182.3	62.600
3183.3	62.400
3184.2	62.100
3185.2	62.000
3186.2	61.700
3187.1	61.500
3188.1	61.300
3189.0	61.100
3190.0	60.900
3191.0	60.700
3191.9	60.500
3192.9	60.300
3193.9	60.100
3194.8	59.900
3195.8	59.700
3196.8	59.500
3197.7	59.300
3198.7	59.100
3199.7	58.900
3200.6	58.700
3201.6	58.600
3202.5	58.400
3203.5	58.200
3204.5	58.000
3205.4	57.800
3206.4	57.600
3207.4	57.500
3208.3	57.300
3209.3	57.100
3210.3	56.900
3211.2	56.700
3212.2	56.600
3213.2	56.400
3214.1	56.300
3215.1	56.100
3216.1	55.900
3217.0	55.800
3218.0	55.600
3218.9	55.400
3219.9	55.300
3220.9	55.200
3221.8	55.000
3222.8	54.800
3223.8	54.700
3224.7	54.600
3225.7	54.400
3226.7	54.300
3227.6	54.100
3228.6	54.000
3229.6	53.900
3230.5	53.800
3231.5	53.600
3232.4	53.500
3233.4	53.400
3234.4	53.200
3235.3	53.100
3236.3	53.000
3237.3	52.900
3238.2	52.800
3239.2	52.600
3240.2	52.500
3241.1	52.400
3242.1	52.300
3243.1	52.200
3244.0	52.100
3245.0	52.000
3245.9	51.900
3246.9	51.800
3247.9	51.700
3248.8	51.600
3249.8	51.500
3250.8	51.400
3251.7	51.300
3252.7	51.200
3253.7	51.100
3254.6	51.100
3255.6	51.000
3256.6	50.900
3257.5	50.800
3258.5	50.700
3259.5	50.700
3260.4	50.600
3261.4	50.500
3262.3	50.400
3263.3	50.400
3264.3	50.300
3265.2	50.200
3266.2	50.200
3267.2	50.100
3268.1	50.000
3269.1	50.000
3270.1	49.900
3271.0	49.800
3272.0	49.800
3273.0	49.700
3273.9	49.700
3274.9	49.600
3275.8	49.600
3276.8	49.500
3277.8	49.500
3278.7	49.400
3279.7	49.400
3280.7	49.300
3281.6	49.300
3282.6	49.300
3283.6	49.200
3284.5	49.200
3285.5	49.200
3286.5	49.200
3287.4	49.100
3288.4	49.100
3289.4	49.100
3290.3	49.100
3291.3	49.000
3292.2	49.000
3293.2	49.000
3294.2	49.000
3295.1	49.000
3296.1	49.000
3297.1	49.000
3298.0	49.000
3299.0	49.000
3300.0	49.000
3300.9	49.000
3301.9	49.000
3302.9	49.000
3303.8	49.000
3304.8	49.000
3305.7	49.100
3306.7	49.100
3307.7	49.100
3308.6	49.100
3309.6	49.100
3310.6	49.100
3311.5	49.200
3312.5	49.200
3313.5	49.200
3314.4	49.200
3315.4	49.300
3316.4	49.300
3317.3	49.300
3318.3	49.400
3319.3	49.400
3320.2	49.500
3321.2	49.500
3322.1	49.500
3323.1	49.600
3324.1	49.600
3325.0	49.700
3326.0	49.700
3327.0	49.800
3327.9	49.800
3328.9	49.900
3329.9	49.900
3330.8	50.000
3331.8	50.000
3332.8	50.100
3333.7	50.100
3334.7	50.200
3335.6	50.200
3336.6	50.300
3337.6	50.400
3338.5	50.500
3339.5	50.500
3340.5	50.500
3341.4	50.600
3342.4	50.700
3343.4	50.700
3344.3	50.800
3345.3	50.900
3346.3	50.900
3347.2	51.000
3348.2	51.000
3349.1	51.100
3350.1	51.200
3351.1	51.300
3352.0	51.300
3353.0	51.400
3354.0	51.500
3354.9	51.500
3355.9	51.600
3356.9	51.700
3357.8	51.700
3358.8	51.800
3359.8	51.900
3360.7	51.900
3361.7	52.000
3362.7	52.100
3363.6	52.200
3364.6	52.200
3365.5	52.300
3366.5	52.400
3367.5	52.500
3368.4	52.600
3369.4	52.600
3370.4	52.700
3371.3	52.800
3372.3	52.900
3373.3	53.000
3374.2	53.000
3375.2	53.100
3376.2	53.200
3377.1	53.300
3378.1	53.300
3379.0	53.400
3380.0	53.500
3381.0	53.600
3381.9	53.700
3382.9	53.800
3383.9	53.900
3384.8	54.000
3385.8	54.100
3386.8	54.200
3387.7	54.300
3388.7	54.400
3389.7	54.500
3390.6	54.600
3391.6	54.700
3392.5	54.800
3393.5	54.900
3394.5	55.000
3395.4	55.100
3396.4	55.200
3397.4	55.400
3398.3	55.400
3399.3	55.600
3400.3	55.700
3401.2	55.800
3402.2	56.000
3403.2	56.100
3404.1	56.200
3405.1	56.300
3406.1	56.400
3407.0	56.500
3408.0	56.700
3408.9	56.800
3409.9	57.000
3410.9	57.100
3411.8	57.200
3412.8	57.400
3413.8	57.500
3414.7	57.700
3415.7	57.800
3416.7	57.900
3417.6	58.100
3418.6	58.200
3419.6	58.400
3420.5	58.500
3421.5	58.700
3422.4	58.900
3423.4	59.000
3424.4	59.200
3425.3	59.400
3426.3	59.500
3427.3	59.700
3428.2	59.900
3429.2	60.000
3430.2	60.200
3431.1	60.400
3432.1	60.600
3433.1	60.700
3434.0	60.900
3435.0	61.100
3436.0	61.300
3436.9	61.500
3437.9	61.700
3438.8	61.800
3439.8	62.000
3440.8	62.200
3441.7	62.400
3442.7	62.600
3443.7	62.800
3444.6	63.000
3445.6	63.200
3446.6	63.400
3447.5	63.700
3448.5	63.800
3449.5	64.100
3450.4	64.300
3451.4	64.400
3452.3	64.700
3453.3	64.900
3454.3	65.100
3455.2	65.400
3456.2	65.600
3457.2	65.800
3458.1	66.000
3459.1	66.200
3460.1	66.500
3461.0	66.700
3462.0	66.900
3463.0	67.100
3463.9	67.400
3464.9	67.600
3465.9	67.800
3466.8	68.100
3467.8	68.300
3468.7	68.500
3469.7	68.800
3470.7	69.100
3471.6	69.300
3472.6	69.500
3473.6	69.800
3474.5	70.000
3475.5	70.300
3476.5	70.500
3477.4	70.800
3478.4	71.000
3479.4	71.200
3480.3	71.500
3481.3	71.700
3482.2	72.000
3483.2	72.200
3484.2	72.500
3485.1	72.800
3486.1	73.000
3487.1	73.200
3488.0	73.500
3489.0	73.700
3490.0	74.000
3490.9	74.200
3491.9	74.400
3492.9	74.700
3493.8	74.900
3494.8	75.200
3495.7	75.400
3496.7	75.700
3497.7	75.900
3498.6	76.100
3499.6	76.400
3500.6	76.600
3501.5	76.800
3502.5	77.100
3503.5	77.300
3504.4	77.500
3505.4	77.800
3506.4	78.000
3507.3	78.200
3508.3	78.500
3509.3	78.700
3510.2	78.900
3511.2	79.100
3512.1	79.300
3513.1	79.500
3514.1	79.800
3515.0	80.000
3516.0	80.200
3517.0	80.400
3517.9	80.600
3518.9	80.800
3519.9	81.000
3520.8	81.200
3521.8	81.400
3522.8	81.600
3523.7	81.800
3524.7	82.000
3525.6	82.200
3526.6	82.400
3527.6	82.600
3528.5	82.800
3529.5	83.000
3530.5	83.200
3531.4	83.400
3532.4	83.600
3533.4	83.800
3534.3	84.000
3535.3	84.200
3536.3	84.400
3537.2	84.600
3538.2	84.800
3539.1	85.000
3540.1	85.100
3541.1	85.300
3542.0	85.500
3543.0	85.700
3544.0	85.900
3544.9	86.100
3545.9	86.300
3546.9	86.400
3547.8	86.700
3548.8	86.800
3549.8	87.000
3550.7	87.200
3551.7	87.400
3552.7	87.600
3553.6	87.700
3554.6	87.900
3555.5	88.100
3556.5	88.300
3557.5	88.400
3558.4	88.600
3559.4	88.800
3560.4	88.900
3561.3	89.100
3562.3	89.300
3563.3	89.400
3564.2	89.600
3565.2	89.700
3566.2	89.900
3567.1	90.000
3568.1	90.200
3569.0	90.400
3570.0	90.500
3571.0	90.700
3571.9	90.800
3572.9	90.900
3573.9	91.100
3574.8	91.200
3575.8	91.300
3576.8	91.500
3577.7	91.600
3578.7	91.800
3579.7	91.900
3580.6	92.000
3581.6	92.200
3582.6	92.300
3583.5	92.400
3584.5	92.500
3585.4	92.600
3586.4	92.800
3587.4	92.900
3588.3	93.000
3589.3	93.100
3590.3	93.200
3591.2	93.300
3592.2	93.400
3593.2	93.500
3594.1	93.700
3595.1	93.700
3596.1	93.800
3597.0	93.900
3598.0	94.000
3598.9	94.100
3599.9	94.200
3600.9	94.300
3601.8	94.400
3602.8	94.500
3603.8	94.600
3604.7	94.700
3605.7	94.800
3606.7	94.800
3607.6	94.900
3608.6	95.000
3609.6	95.100
3610.5	95.200
3611.5	95.300
3612.5	95.300
3613.4	95.400
3614.4	95.500
3615.3	95.600
3616.3	95.600
3617.3	95.700
3618.2	95.800
3619.2	95.800
3620.2	95.900
3621.1	96.000
3622.1	96.100
3623.1	96.100
3624.0	96.200
3625.0	96.200
3626.0	96.300
3626.9	96.400
3627.9	96.400
3628.8	96.500
3629.8	96.500
3630.8	96.600
3631.7	96.600
3632.7	96.700
3633.7	96.700
3634.6	96.800
3635.6	96.800
3636.6	96.900
3637.5	96.900
3638.5	96.900
3639.5	97.000
3640.4	97.000
3641.4	97.000
3642.3	97.000
3643.3	97.000
3644.3	97.000
3645.2	97.000
3646.2	97.000
3647.2	96.900
3648.1	96.900
3649.1	96.800
3650.1	96.800
3651.0	96.700
3652.0	96.600
3653.0	96.500
3653.9	96.400
3654.9	96.300
3655.9	96.200
3656.8	96.100
3657.8	96.000
3658.7	95.900
3659.7	95.800
3660.7	95.700
3661.6	95.700
3662.6	95.600
3663.6	95.600
3664.5	95.600
3665.5	95.600
3666.5	95.500
3667.4	95.600
3668.4	95.700
3669.4	95.700
3670.3	95.900
3671.3	96.000
3672.2	96.100
3673.2	96.200
3674.2	96.300
3675.1	96.500
3676.1	96.600
3677.1	96.700
3678.0	96.900
3679.0	97.000
3680.0	97.100
3680.9	97.200
3681.9	97.300
3682.9	97.300
3683.8	97.400
3684.8	97.400
3685.7	97.500
3686.7	97.500
3687.7	97.600
3688.6	97.600
3689.6	97.600
3690.6	97.700
3691.5	97.700
3692.5	97.800
3693.5	97.800
3694.4	97.900
3695.4	97.900
3696.4	98.000
3697.3	98.100
3698.3	98.200
3699.3	98.200
3700.2	98.300
3701.2	98.400
3702.1	98.500
3703.1	98.600
3704.1	98.600
3705.0	98.700
3706.0	98.700
3707.0	98.800
3707.9	98.800
3708.9	98.900
3709.9	98.900
3710.8	98.900
3711.8	99.000
3712.8	99.000
3713.7	99.100
3714.7	99.100
3715.6	99.100
3716.6	99.100
3717.6	99.100
3718.5	99.100
3719.5	99.100
3720.5	99.100
3721.4	99.200
3722.4	99.200
3723.4	99.200
3724.3	99.200
3725.3	99.200
3726.3	99.200
3727.2	99.200
3728.2	99.200
3729.2	99.300
3730.1	99.300
3731.1	99.300
3732.0	99.300
3733.0	99.300
3734.0	99.300
3734.9	99.300
3735.9	99.300
3736.9	99.300
3737.8	99.300
3738.8	99.400
3739.8	99.400
3740.7	99.400
3741.7	99.400
3742.7	99.400
3743.6	99.400
3744.6	99.400
3745.5	99.400
3746.5	99.400
3747.5	99.400
3748.4	99.400
3749.4	99.400
3750.4	99.400
3751.3	99.400
3752.3	99.400
3753.3	99.500
3754.2	99.500
3755.2	99.400
3756.2	99.500
3757.1	99.500
3758.1	99.500
3759.1	99.500
3760.0	99.500
3761.0	99.500
3761.9	99.500
3762.9	99.500
3763.9	99.500
3764.8	99.500
3765.8	99.500
3766.8	99.500
3767.7	99.500
3768.7	99.600
3769.7	99.500
3770.6	99.500
3771.6	99.600
3772.6	99.500
3773.5	99.600
3774.5	99.600
3775.4	99.600
3776.4	99.600
3777.4	99.600
3778.3	99.600
3779.3	99.600
3780.3	99.600
3781.2	99.600
3782.2	99.600
3783.2	99.600
3784.1	99.600
3785.1	99.600
3786.1	99.700
3787.0	99.600
3788.0	99.700
3788.9	99.700
3789.9	99.600
3790.9	99.600
3791.8	99.700
3792.8	99.700
3793.8	99.700
3794.7	99.700
3795.7	99.700
3796.7	99.700
3797.6	99.700
3798.6	99.700
3799.6	99.700
3800.5	99.700
3801.5	99.700
3802.5	99.700
3803.4	99.700
3804.4	99.700
3805.3	99.700
3806.3	99.700
3807.3	99.700
3808.2	99.700
3809.2	99.800
3810.2	99.700
3811.1	99.700
3812.1	99.800
3813.1	99.800
3814.0	99.800
3815.0	99.700
3816.0	99.700
3816.9	99.800
3817.9	99.800
3818.8	99.800
3819.8	99.800
3820.8	99.800
3821.7	99.800
3822.7	99.800
3823.7	99.800
3824.6	99.800
3825.6	99.800
3826.6	99.800
3827.5	99.800
3828.5	99.800
3829.5	99.800
3830.4	99.800
3831.4	99.800
3832.4	99.800
3833.3	99.800
3834.3	99.800
3835.2	99.800
3836.2	99.800
3837.2	99.800
3838.1	99.800
3839.1	99.800
3840.1	99.800
3841.0	99.900
3842.0	99.800
3843.0	99.800
3843.9	99.800
3844.9	99.800
3845.9	99.800
3846.8	99.800
3847.8	99.900
3848.7	99.900
3849.7	99.900
3850.7	99.900
3851.6	99.900
3852.6	99.800
3853.6	99.900
3854.5	99.900
3855.5	99.800
3856.5	99.900
3857.4	99.900
3858.4	99.900
3859.4	99.900
3860.3	99.900
3861.3	99.900
3862.3	99.900
3863.2	99.900
3864.2	99.900
3865.1	99.900
3866.1	99.900
3867.1	99.900
3868.0	99.900
3869.0	99.900
3870.0	99.900
3870.9	99.900
3871.9	99.900
3872.9	99.900
3873.8	99.900
3874.8	99.900
3875.8	99.900
3876.7	99.900
3877.7	99.900
3878.6	99.900
3879.6	99.900
3880.6	99.900
3881.5	99.900
3882.5	99.900
3883.5	99.900
3884.4	99.900
3885.4	99.900
3886.4	99.900
3887.3	99.900
3888.3	99.900
3889.3	99.900
3890.2	99.900
3891.2	99.900
3892.1	99.900
3893.1	99.900
3894.1	99.900
3895.0	100.00
3896.0	99.900
3897.0	99.900
3897.9	99.900
3898.9	100.00
3899.9	99.900
3900.8	99.900
3901.8	99.900
3902.8	99.900
3903.7	99.900
3904.7	99.900
3905.7	99.900
3906.6	99.900
3907.6	99.900
3908.5	99.900
3909.5	99.900
3910.5	100.00
3911.4	100.00
3912.4	99.900
3913.4	99.900
3914.3	100.00
3915.3	99.900
3916.3	99.900
3917.2	100.00
3918.2	99.900
3919.2	100.00
3920.1	100.00
3921.1	99.900
3922.0	99.900
3923.0	99.900
3924.0	99.900
3924.9	99.900
3925.9	100.00
3926.9	99.900
3927.8	100.00
3928.8	100.00
3929.8	99.900
3930.7	99.900
3931.7	99.900
3932.7	100.00
3933.6	99.900
3934.6	99.900
3935.6	99.900
3936.5	100.00
3937.5	100.00
3938.4	99.900
3939.4	100.00
3940.4	99.900
3941.3	99.900
3942.3	99.900
3943.3	99.900
3944.2	99.900
3945.2	99.900
3946.2	99.900
3947.1	99.900
3948.1	100.00
3949.1	99.900
3950.0	99.900
3951.0	99.900
3951.9	99.900
3952.9	99.900
3953.9	99.900
3954.8	99.900
3955.8	100.00
3956.8	99.900
3957.7	100.00
3958.7	99.900
3959.7	100.00
3960.6	99.900
3961.6	99.900
3962.6	100.00
3963.5	100.00
3964.5	99.900
3965.4	99.900
3966.4	99.900
3967.4	99.900
3968.3	99.900
3969.3	99.900
3970.3	99.900
3971.2	99.900
3972.2	99.900
3973.2	99.900
3974.1	99.900
3975.1	99.900
3976.1	99.900
3977.0	99.900
3978.0	99.900
3979.0	99.900
3979.9	99.900
3980.9	100.00
3981.8	99.900
3982.8	99.900
3983.8	100.00
3984.7	100.00
3985.7	99.900
3986.7	99.900
3987.6	99.900
3988.6	100.00
3989.6	99.900
3990.5	99.900
3991.5	99.900
3992.5	99.900
3993.4	99.900
3994.4	99.900
3995.3	99.900
3996.3	99.900
3997.3	99.900
3998.2	99.900
3999.2	99.900
